T(K)  p(mbar)  mu(amu)  mean cp(kJ/kg/K)
       75.000000    0.0010000000       2.3450652       12.936479
       75.000000    0.0030000000       2.3450651       12.936479
       75.000000     0.010000000       2.3450651       12.936479
       75.000000     0.030000000       2.3450651       12.936479
       75.000000      0.10000000       2.3450651       12.936479
       75.000000      0.30000000       2.3450651       12.936479
       75.000000       1.0000000       2.3450651       12.936479
       75.000000       3.0000000       2.3450651       12.936479
       75.000000       10.000000       2.3450651       12.936479
       75.000000       30.000000       2.3450651       12.936479
       75.000000       100.00000       2.3450651       12.936479
       75.000000       300.00000       2.3450651       12.936479
       75.000000       1000.0000       2.3450651       12.936479
       75.000000       3000.0000       2.3450651       12.936479
       75.000000       10000.000       2.3450651       12.936479
       100.00000    0.0010000000       2.3514593       12.451182
       100.00000    0.0030000000       2.3502088       12.451182
       100.00000     0.010000000       2.3466086       12.451182
       100.00000     0.030000000       2.3455796       12.451182
       100.00000      0.10000000       2.3452194       12.451182
       100.00000      0.30000000       2.3451165       12.451182
       100.00000       1.0000000       2.3450805       12.451182
       100.00000       3.0000000       2.3450702       12.451182
       100.00000       10.000000       2.3450666       12.451182
       100.00000       30.000000       2.3450656       12.451182
       100.00000       100.00000       2.3450652       12.451182
       100.00000       300.00000       2.3450651       12.451182
       100.00000       1000.0000       2.3450651       12.451182
       100.00000       3000.0000       2.3450651       12.451182
       100.00000       10000.000       2.3450651       12.451182
       100.00000       30000.000       2.3450651       12.451182
       110.00000    0.0010000000       2.3514594       12.390565
       110.00000    0.0030000000       2.3514593       12.390565
       110.00000     0.010000000       2.3514593       12.390565
       110.00000     0.030000000       2.3514593       12.390565
       110.00000      0.10000000       2.3493512       12.390565
       110.00000      0.30000000       2.3464941       12.390565
       110.00000       1.0000000       2.3454938       12.390565
       110.00000       3.0000000       2.3452080       12.390565
       110.00000       10.000000       2.3451080       12.390565
       110.00000       30.000000       2.3450794       12.390565
       110.00000       100.00000       2.3450694       12.390565
       110.00000       300.00000       2.3450665       12.390565
       110.00000       1000.0000       2.3450655       12.390565
       110.00000       3000.0000       2.3450652       12.390565
       110.00000       10000.000       2.3450651       12.390565
       110.00000       30000.000       2.3450651       12.390565
       110.00000       100000.00       2.3450651       12.390565
       120.00000    0.0010000000       2.3514695       12.391930
       120.00000    0.0030000000       2.3514627       12.391930
       120.00000     0.010000000       2.3514603       12.391930
       120.00000     0.030000000       2.3514596       12.391930
       120.00000      0.10000000       2.3514594       12.391930
       120.00000      0.30000000       2.3514593       12.391930
       120.00000       1.0000000       2.3514593       12.391930
       120.00000       3.0000000       2.3473456       12.391930
       120.00000       10.000000       2.3457493       12.391930
       120.00000       30.000000       2.3452932       12.391930
       120.00000       100.00000       2.3451335       12.391930
       120.00000       300.00000       2.3450879       12.391930
       120.00000       1000.0000       2.3450719       12.391930
       120.00000       3000.0000       2.3450674       12.391930
       120.00000       10000.000       2.3450658       12.391930
       120.00000       30000.000       2.3450653       12.391930
       120.00000       100000.00       2.3450652       12.391930
       130.00000    0.0010000000       2.3518199       12.445732
       130.00000    0.0030000000       2.3515795       12.445740
       130.00000     0.010000000       2.3514953       12.445742
       130.00000     0.030000000       2.3514713       12.445743
       130.00000      0.10000000       2.3514629       12.445743
       130.00000      0.30000000       2.3514605       12.445743
       130.00000       1.0000000       2.3514596       12.445743
       130.00000       3.0000000       2.3514594       12.445743
       130.00000       10.000000       2.3514593       12.445743
       130.00000       30.000000       2.3474419       12.445743
       130.00000       100.00000       2.3457782       12.445743
       130.00000       300.00000       2.3453028       12.445743
       130.00000       1000.0000       2.3451364       12.445743
       130.00000       3000.0000       2.3450889       12.445743
       130.00000       10000.000       2.3450722       12.445743
       130.00000       30000.000       2.3450675       12.445743
       130.00000       100000.00       2.3450658       12.445743
       140.00000    0.0010000000       2.3540614       12.542140
       140.00000    0.0030000000       2.3540032       12.542358
       140.00000     0.010000000       2.3522225       12.542435
       140.00000     0.030000000       2.3517137       12.542456
       140.00000      0.10000000       2.3515356       12.542464
       140.00000      0.30000000       2.3514847       12.542466
       140.00000       1.0000000       2.3514669       12.542467
       140.00000       3.0000000       2.3514618       12.542467
       140.00000       10.000000       2.3514600       12.542467
       140.00000       30.000000       2.3514595       12.542467
       140.00000       100.00000       2.3503807       12.542467
       140.00000       300.00000       2.3468373       12.542467
       140.00000       1000.0000       2.3455968       12.542467
       140.00000       3000.0000       2.3452423       12.542467
       140.00000       10000.000       2.3451183       12.542467
       140.00000       30000.000       2.3450828       12.542467
       140.00000       100000.00       2.3450704       12.542467
       150.00000    0.0010000000       2.3548706       12.666304
       150.00000    0.0030000000       2.3543010       12.670478
       150.00000     0.010000000       2.3541016       12.671940
       150.00000     0.030000000       2.3540447       12.672358
       150.00000      0.10000000       2.3525350       12.672504
       150.00000      0.30000000       2.3518179       12.672546
       150.00000       1.0000000       2.3515669       12.672560
       150.00000       3.0000000       2.3514951       12.672565
       150.00000       10.000000       2.3514700       12.672566
       150.00000       30.000000       2.3514629       12.672566
       150.00000       100.00000       2.3514603       12.672567
       150.00000       300.00000       2.3514596       12.672567
       150.00000       1000.0000       2.3480977       12.672567
       150.00000       3000.0000       2.3460761       12.672567
       150.00000       10000.000       2.3453684       12.672567
       150.00000       30000.000       2.3451662       12.672567
       150.00000       100000.00       2.3450954       12.672567
       160.00000    0.0010000000       2.3651577       12.743904
       160.00000    0.0030000000       2.3577041       12.798837
       160.00000     0.010000000       2.3550973       12.818194
       160.00000     0.030000000       2.3543748       12.823735
       160.00000      0.10000000       2.3541209       12.825675
       160.00000      0.30000000       2.3540534       12.826228
       160.00000       1.0000000       2.3525492       12.826422
       160.00000       3.0000000       2.3518226       12.826478
       160.00000       10.000000       2.3515683       12.826497
       160.00000       30.000000       2.3514956       12.826503
       160.00000       100.00000       2.3514702       12.826504
       160.00000       300.00000       2.3514629       12.826505
       160.00000       1000.0000       2.3514604       12.826505
       160.00000       3000.0000       2.3497031       12.826505
       160.00000       10000.000       2.3464568       12.826505
       160.00000       30000.000       2.3455290       12.826505
       160.00000       100000.00       2.3452043       12.826505
       170.00000    0.0010000000       2.3945724       12.695637
       170.00000    0.0030000000       2.3899895       12.728669
       170.00000     0.010000000       2.3647964       12.913568
       170.00000     0.030000000       2.3575836       12.967559
       170.00000      0.10000000       2.3550575       12.986581
       170.00000      0.30000000       2.3543357       12.992028
       170.00000       1.0000000       2.3540867       12.993935
       170.00000       3.0000000       2.3540415       12.994477
       170.00000       10.000000       2.3523007       12.994666
       170.00000       30.000000       2.3517398       12.994720
       170.00000       100.00000       2.3515434       12.994739
       170.00000       300.00000       2.3514873       12.994745
       170.00000       1000.0000       2.3514677       12.994747
       170.00000       3000.0000       2.3514621       12.994747
       170.00000       10000.000       2.3504020       12.994747
       170.00000       30000.000       2.3468445       12.994747
       170.00000       100000.00       2.3455990       12.994747
       180.00000    0.0010000000       2.3945799       12.863979
       180.00000    0.0030000000       2.3945799       12.863979
       180.00000     0.010000000       2.3945799       12.863979
       180.00000     0.030000000       2.3810799       12.963336
       180.00000      0.10000000       2.3621206       13.105648
       180.00000      0.30000000       2.3566989       13.146980
       180.00000       1.0000000       2.3547991       13.161520
       180.00000       3.0000000       2.3542564       13.165681
       180.00000       10.000000       2.3540700       13.167136
       180.00000       30.000000       2.3531850       13.167551
       180.00000       100.00000       2.3519839       13.167694
       180.00000       300.00000       2.3516420       13.167735
       180.00000       1000.0000       2.3515212       13.167750
       180.00000       3000.0000       2.3514866       13.167754
       180.00000       10000.000       2.3514746       13.167755
       180.00000       30000.000       2.3509523       13.167756
       180.00000       100000.00       2.3468386       13.167756
       190.00000    0.0010000000       2.3946027       13.027664
       190.00000    0.0030000000       2.3946027       13.027664
       190.00000     0.010000000       2.3946027       13.027664
       190.00000     0.030000000       2.3946027       13.027664
       190.00000      0.10000000       2.3946027       13.027664
       190.00000      0.30000000       2.3704917       13.208931
       190.00000       1.0000000       2.3589526       13.297581
       190.00000       3.0000000       2.3556523       13.323167
       190.00000       10.000000       2.3545006       13.332148
       190.00000       30.000000       2.3541740       13.334715
       190.00000       100.00000       2.3540891       13.335611
       190.00000       300.00000       2.3523711       13.335866
       190.00000       1000.0000       2.3517564       13.335956
       190.00000       3000.0000       2.3515808       13.335983
       190.00000       10000.000       2.3515193       13.335991
       190.00000       30000.000       2.3515017       13.335993
       190.00000       100000.00       2.3502359       13.335994
       200.00000    0.0010000000       2.3946027       13.177452
       200.00000    0.0030000000       2.3946027       13.177455
       200.00000     0.010000000       2.3946027       13.177455
       200.00000     0.030000000       2.3946027       13.177455
       200.00000      0.10000000       2.3946027       13.177455
       200.00000      0.30000000       2.3946027       13.177457
       200.00000       1.0000000       2.3791019       13.294943
       200.00000       3.0000000       2.3623776       13.424206
       200.00000       10.000000       2.3565190       13.470141
       200.00000       30.000000       2.3548469       13.483334
       200.00000       100.00000       2.3542909       13.487953
       200.00000       300.00000       2.3541339       13.489273
       200.00000       1000.0000       2.3526323       13.489737
       200.00000       3000.0000       2.3518761       13.489877
       200.00000       10000.000       2.3516103       13.489915
       200.00000       30000.000       2.3515343       13.489925
       200.00000       100000.00       2.3515077       13.489929
       210.00000    0.0010000000       2.3946022       13.306471
       210.00000    0.0030000000       2.3946027       13.306497
       210.00000     0.010000000       2.3946027       13.306500
       210.00000     0.030000000       2.3946027       13.306500
       210.00000      0.10000000       2.3946027       13.306500
       210.00000      0.30000000       2.3946027       13.306503
       210.00000       1.0000000       2.3946027       13.306506
       210.00000       3.0000000       2.3903620       13.338809
       210.00000       10.000000       2.3649313       13.535971
       210.00000       30.000000       2.3576526       13.593566
       210.00000       100.00000       2.3551328       13.613845
       210.00000       300.00000       2.3544145       13.619654
       210.00000       1000.0000       2.3541594       13.621695
       210.00000       3000.0000       2.3529258       13.622312
       210.00000       10000.000       2.3519252       13.622478
       210.00000       30000.000       2.3516393       13.622525
       210.00000       100000.00       2.3515392       13.622541
       220.00000    0.0010000000       2.3945974       13.417496
       220.00000    0.0030000000       2.3946022       13.417753
       220.00000     0.010000000       2.3946026       13.417783
       220.00000     0.030000000       2.3946027       13.417785
       220.00000      0.10000000       2.3946027       13.417786
       220.00000      0.30000000       2.3946027       13.417788
       220.00000       1.0000000       2.3946027       13.417791
       220.00000       3.0000000       2.3946027       13.417809
       220.00000       10.000000       2.3946066       13.417828
       220.00000       30.000000       2.3678636       13.626316
       220.00000       100.00000       2.3581951       13.703540
       220.00000       300.00000       2.3554333       13.725801
       220.00000       1000.0000       2.3544661       13.733633
       220.00000       3000.0000       2.3541922       13.736005
       220.00000       10000.000       2.3529278       13.736645
       220.00000       30000.000       2.3519735       13.736824
       220.00000       100000.00       2.3516395       13.736887
       230.00000    0.0010000000       2.3945594       13.514443
       230.00000    0.0030000000       2.3946017       13.516338
       230.00000     0.010000000       2.3946006       13.516596
       230.00000     0.030000000       2.3946027       13.516606
       230.00000      0.10000000       2.3946027       13.516608
       230.00000      0.30000000       2.3946027       13.516611
       230.00000       1.0000000       2.3946026       13.516614
       230.00000       3.0000000       2.3946027       13.516632
       230.00000       10.000000       2.3946082       13.516639
       230.00000       30.000000       2.3946120       13.516815
       230.00000       100.00000       2.3681157       13.725203
       230.00000       300.00000       2.3587427       13.800585
       230.00000       1000.0000       2.3554593       13.827268
       230.00000       3000.0000       2.3545199       13.835362
       230.00000       10000.000       2.3541944       13.837550
       230.00000       30000.000       2.3529312       13.838165
       230.00000       100000.00       2.3519268       13.838380
       240.00000    0.0010000000       2.3943678       13.595019
       240.00000    0.0030000000       2.3945731       13.603302
       240.00000     0.010000000       2.3946034       13.604864
       240.00000     0.030000000       2.3946062       13.605014
       240.00000      0.10000000       2.3946027       13.605035
       240.00000      0.30000000       2.3946026       13.605039
       240.00000       1.0000000       2.3946027       13.605042
       240.00000       3.0000000       2.3946027       13.605060
       240.00000       10.000000       2.3946029       13.605084
       240.00000       30.000000       2.3946067       13.605260
       240.00000       100.00000       2.3946398       13.605452
       240.00000       300.00000       2.3684081       13.813286
       240.00000       1000.0000       2.3583614       13.894863
       240.00000       3000.0000       2.3554874       13.919748
       240.00000       10000.000       2.3544847       13.926500
       240.00000       30000.000       2.3541972       13.928399
       240.00000       100000.00       2.3526779       13.929064
       250.00000    0.0010000000       2.3940455       13.659055
       250.00000    0.0030000000       2.3944146       13.674214
       250.00000     0.010000000       2.3945907       13.680932
       250.00000     0.030000000       2.3946043       13.681794
       250.00000      0.10000000       2.3946063       13.681897
       250.00000      0.30000000       2.3946026       13.681913
       250.00000       1.0000000       2.3946026       13.681917
       250.00000       3.0000000       2.3946027       13.681935
       250.00000       10.000000       2.3946029       13.681958
       250.00000       30.000000       2.3946066       13.682134
       250.00000       100.00000       2.3946398       13.682326
       250.00000       300.00000       2.3941653       13.687048
       250.00000       1000.0000       2.3661077       13.911716
       250.00000       3000.0000       2.3580713       13.981317
       250.00000       10000.000       2.3552601       14.000318
       250.00000       30000.000       2.3544557       14.005672
       250.00000       100000.00       2.3541742       14.007546
       260.00000    0.0010000000       2.3936311       13.714955
       260.00000    0.0030000000       2.3941324       13.727664
       260.00000     0.010000000       2.3945059       13.742334
       260.00000     0.030000000       2.3945979       13.746142
       260.00000      0.10000000       2.3946053       13.746671
       260.00000      0.30000000       2.3946063       13.746721
       260.00000       1.0000000       2.3946027       13.746734
       260.00000       3.0000000       2.3946026       13.746752
       260.00000       10.000000       2.3946065       13.746771
       260.00000       30.000000       2.3946066       13.746951
       260.00000       100.00000       2.3946360       13.747148
       260.00000       300.00000       2.3946531       13.748054
       260.00000       1000.0000       2.3851822       13.826948
       260.00000       3000.0000       2.3644414       14.004906
       260.00000       10000.000       2.3571723       14.054081
       260.00000       30000.000       2.3550932       14.067992
       260.00000       100000.00       2.3543654       14.072868
       260.00000       300000.00       2.3538493       14.074262
       270.00000    0.0010000000       2.3928765       13.769484
       270.00000    0.0030000000       2.3937786       13.773238
       270.00000     0.010000000       2.3942955       13.789355
       270.00000     0.030000000       2.3945489       13.799640
       270.00000      0.10000000       2.3946077       13.801923
       270.00000      0.30000000       2.3946095       13.802144
       270.00000       1.0000000       2.3946065       13.802176
       270.00000       3.0000000       2.3946065       13.802197
       270.00000       10.000000       2.3946080       13.802208
       270.00000       30.000000       2.3946066       13.802400
       270.00000       100.00000       2.3946360       13.802597
       270.00000       300.00000       2.3946477       13.803520
       270.00000       1000.0000       2.3946572       13.808756
       270.00000       3000.0000       2.3790644       13.963846
       270.00000       10000.000       2.3615664       14.081490
       270.00000       30000.000       2.3565585       14.115069
       270.00000       100000.00       2.3548051       14.126869
       270.00000       300000.00       2.3543040       14.130247
       275.00000    0.0010000000       2.3923592       13.796584
       275.00000    0.0030000000       2.3935225       13.795926
       275.00000     0.010000000       2.3941544       13.809282
       275.00000     0.030000000       2.3945060       13.822735
       275.00000      0.10000000       2.3946027       13.826952
       275.00000      0.30000000       2.3946089       13.827414
       275.00000       1.0000000       2.3946048       13.827487
       275.00000       3.0000000       2.3946065       13.827497
       275.00000       10.000000       2.3946065       13.827521
       275.00000       30.000000       2.3946066       13.827701
       275.00000       100.00000       2.3946344       13.827910
       275.00000       300.00000       2.3946492       13.828808
       275.00000       1000.0000       2.3946572       13.834057
       275.00000       3000.0000       2.3916315       13.906655
       275.00000       10000.000       2.3653469       14.082079
       275.00000       30000.000       2.3578198       14.132526
       275.00000       100000.00       2.3551836       14.150296
       275.00000       300000.00       2.3544302       14.155386
       280.00000    0.0010000000       2.3919448       13.822479
       280.00000    0.0030000000       2.3931677       13.819347
       280.00000     0.010000000       2.3939891       13.828406
       280.00000     0.030000000       2.3944196       13.843565
       280.00000      0.10000000       2.3945775       13.850592
       280.00000      0.30000000       2.3946116       13.851510
       280.00000       1.0000000       2.3946099       13.851628
       280.00000       3.0000000       2.3946064       13.851659
       280.00000       10.000000       2.3946064       13.851683
       280.00000       30.000000       2.3946066       13.851864
       280.00000       100.00000       2.3946359       13.852060
       280.00000       300.00000       2.3946492       13.852971
       280.00000       1000.0000       2.3946572       13.858219
       280.00000       3000.0000       2.3946610       13.911076
       280.00000       10000.000       2.3698845       14.076456
       280.00000       30000.000       2.3593342       14.147080
       280.00000       100000.00       2.3556380       14.172025
       280.00000       300000.00       2.3545817       14.179178
       290.00000    0.0010000000       2.3915346       13.868389
       290.00000    0.0030000000       2.3922477       13.866251
       290.00000     0.010000000       2.3935539       13.866142
       290.00000     0.030000000       2.3941709       13.878936
       290.00000      0.10000000       2.3945309       13.892551
       290.00000      0.30000000       2.3946115       13.895655
       290.00000       1.0000000       2.3946116       13.896089
       290.00000       3.0000000       2.3946100       13.896135
       290.00000       10.000000       2.3946065       13.896167
       290.00000       30.000000       2.3946104       13.896344
       290.00000       100.00000       2.3946160       13.896548
       290.00000       300.00000       2.3946492       13.897455
       290.00000       1000.0000       2.3946571       13.902703
       290.00000       3000.0000       2.3946610       13.955560
       290.00000       10000.000       2.3840855       14.027612
       290.00000       30000.000       2.3640770       14.160618
       290.00000       100000.00       2.3570619       14.208002
       290.00000       300000.00       2.3550564       14.221627
       300.00000    0.0010000000       2.3932854       13.890732
       300.00000    0.0030000000       2.3933177       13.892208
       300.00000     0.010000000       2.3934328       13.897024
       300.00000     0.030000000       2.3936738       13.907849
       300.00000      0.10000000       2.3940822       13.925271
       300.00000      0.30000000       2.3942600       13.933115
       300.00000       1.0000000       2.3943050       13.934531
       300.00000       3.0000000       2.3943096       13.934690
       300.00000       10.000000       2.3943098       13.934729
       300.00000       30.000000       2.3943099       13.934910
       300.00000       100.00000       2.3943099       13.935133
       300.00000       300.00000       2.3943099       13.936069
       300.00000       1000.0000       2.3943099       13.941320
       300.00000       3000.0000       2.3943099       13.994110
       300.00000       10000.000       2.3943099       13.997145
       300.00000       30000.000       2.3719617       14.144570
       300.00000       100000.00       2.3592187       14.230402
       300.00000       300000.00       2.3555739       14.255208
       310.00000    0.0010000000       2.3932794       13.921248
       310.00000    0.0030000000       2.3932997       13.922071
       310.00000     0.010000000       2.3933712       13.924867
       310.00000     0.030000000       2.3935130       13.931893
       310.00000      0.10000000       2.3938913       13.947719
       310.00000      0.30000000       2.3942014       13.961175
       310.00000       1.0000000       2.3942777       13.965176
       310.00000       3.0000000       2.3943089       13.965619
       310.00000       10.000000       2.3943098       13.965693
       310.00000       30.000000       2.3943098       13.965877
       310.00000       100.00000       2.3943099       13.966100
       310.00000       300.00000       2.3943099       13.967036
       310.00000       1000.0000       2.3943099       13.972288
       310.00000       3000.0000       2.3943099       14.025077
       310.00000       10000.000       2.3943099       14.028112
       310.00000       30000.000       2.3855994       14.085259
       310.00000       100000.00       2.3633191       14.234190
       310.00000       300000.00       2.3569416       14.277584
       320.00000    0.0010000000       2.3932762       13.946570
       320.00000    0.0030000000       2.3932846       13.947055
       320.00000     0.010000000       2.3933195       13.948687
       320.00000     0.030000000       2.3934260       13.953044
       320.00000      0.10000000       2.3936866       13.964914
       320.00000      0.30000000       2.3940676       13.981058
       320.00000       1.0000000       2.3942623       13.989802
       320.00000       3.0000000       2.3943047       13.991089
       320.00000       10.000000       2.3943096       13.991275
       320.00000       30.000000       2.3943098       13.991469
       320.00000       100.00000       2.3943099       13.991693
       320.00000       300.00000       2.3943099       13.992629
       320.00000       1000.0000       2.3943099       13.997881
       320.00000       3000.0000       2.3943099       14.050670
       320.00000       10000.000       2.3943099       14.053705
       320.00000       30000.000       2.3943099       14.053671
       320.00000       100000.00       2.3699154       14.215584
       320.00000       300000.00       2.3591430       14.288680
       330.00000    0.0010000000       2.3932564       13.968979
       330.00000    0.0030000000       2.3932796       13.969274
       330.00000     0.010000000       2.3933024       13.970245
       330.00000     0.030000000       2.3933718       13.972931
       330.00000      0.10000000       2.3935546       13.981063
       330.00000      0.30000000       2.3938934       13.995955
       330.00000       1.0000000       2.3942166       14.010110
       330.00000       3.0000000       2.3942777       14.013388
       330.00000       10.000000       2.3943090       14.013843
       330.00000       30.000000       2.3943098       14.014062
       330.00000       100.00000       2.3943098       14.014289
       330.00000       300.00000       2.3943099       14.015225
       330.00000       1000.0000       2.3943099       14.020477
       330.00000       3000.0000       2.3943099       14.073266
       330.00000       10000.000       2.3943099       14.076301
       330.00000       30000.000       2.3943099       14.076267
       330.00000       100000.00       2.3802007       14.169355
       330.00000       300000.00       2.3625772       14.288212
       340.00000    0.0010000000       2.3932717       13.989223
       340.00000    0.0030000000       2.3932765       13.989408
       340.00000     0.010000000       2.3932871       13.990013
       340.00000     0.030000000       2.3933239       13.991665
       340.00000      0.10000000       2.3934505       13.997040
       340.00000      0.30000000       2.3937217       14.008755
       340.00000       1.0000000       2.3941261       14.026084
       340.00000       3.0000000       2.3942654       14.032956
       340.00000       10.000000       2.3943056       14.034129
       340.00000       30.000000       2.3943096       14.034424
       340.00000       100.00000       2.3943099       14.034659
       340.00000       300.00000       2.3943099       14.035596
       340.00000       1000.0000       2.3943099       14.040848
       340.00000       3000.0000       2.3943099       14.093637
       340.00000       10000.000       2.3943099       14.096672
       340.00000       30000.000       2.3943099       14.096638
       340.00000       100000.00       2.3943099       14.096192
       340.00000       300000.00       2.3677842       14.273348
       350.00000    0.0010000000       2.3932709       14.006442
       350.00000    0.0030000000       2.3932567       14.006550
       350.00000     0.010000000       2.3932813       14.006939
       350.00000     0.030000000       2.3933055       14.007985
       350.00000      0.10000000       2.3933733       14.011491
       350.00000      0.30000000       2.3935817       14.019978
       350.00000       1.0000000       2.3939818       14.037055
       350.00000       3.0000000       2.3942292       14.048514
       350.00000       10.000000       2.3943023       14.051248
       350.00000       30.000000       2.3943093       14.051711
       350.00000       100.00000       2.3943098       14.051965
       350.00000       300.00000       2.3943099       14.052904
       350.00000       1000.0000       2.3943099       14.058156
       350.00000       3000.0000       2.3943099       14.110945
       350.00000       10000.000       2.3943099       14.113981
       350.00000       30000.000       2.3943099       14.113947
       350.00000       100000.00       2.3943099       14.113501
       350.00000       300000.00       2.3754763       14.238591
       375.00000    0.0010000000       2.3932704       14.035686
       375.00000    0.0030000000       2.3932710       14.035724
       375.00000     0.010000000       2.3932571       14.035854
       375.00000     0.030000000       2.3932814       14.036230
       375.00000      0.10000000       2.3933092       14.037470
       375.00000      0.30000000       2.3933746       14.040858
       375.00000       1.0000000       2.3936116       14.050678
       375.00000       3.0000000       2.3939855       14.066640
       375.00000       10.000000       2.3942432       14.078491
       375.00000       30.000000       2.3943024       14.080813
       375.00000       100.00000       2.3943094       14.081315
       375.00000       300.00000       2.3943098       14.082261
       375.00000       1000.0000       2.3943099       14.087422
       375.00000       3000.0000       2.3943099       14.139154
       375.00000       10000.000       2.3943099       14.142361
       375.00000       30000.000       2.3943099       14.143395
       375.00000       100000.00       2.3943099       14.142990
       375.00000       300000.00       2.3943099       14.141863
       400.00000    0.0010000000       2.3932671       14.055682
       400.00000    0.0030000000       2.3932672       14.055698
       400.00000     0.010000000       2.3932682       14.055746
       400.00000     0.030000000       2.3932740       14.055886
       400.00000      0.10000000       2.3932827       14.056377
       400.00000      0.30000000       2.3933107       14.057748
       400.00000       1.0000000       2.3933987       14.062209
       400.00000       3.0000000       2.3936432       14.072472
       400.00000       10.000000       2.3940549       14.090182
       400.00000       30.000000       2.3942658       14.099241
       400.00000       100.00000       2.3943013       14.101124
       400.00000       300.00000       2.3943079       14.102015
       400.00000       1000.0000       2.3943083       14.105984
       400.00000       3000.0000       2.3943084       14.143918
       400.00000       10000.000       2.3943083       14.149356
       400.00000       30000.000       2.3943083       14.164333
       400.00000       100000.00       2.3943083       14.164457
       400.00000       300000.00       2.3943083       14.163014
       425.00000    0.0010000000       2.3932667       14.068621
       425.00000    0.0030000000       2.3932671       14.068625
       425.00000     0.010000000       2.3932674       14.068646
       425.00000     0.030000000       2.3932684       14.068707
       425.00000      0.10000000       2.3932756       14.068914
       425.00000      0.30000000       2.3932860       14.069512
       425.00000       1.0000000       2.3933255       14.071531
       425.00000       3.0000000       2.3934527       14.076777
       425.00000       10.000000       2.3937583       14.090325
       425.00000       30.000000       2.3941126       14.106227
       425.00000       100.00000       2.3942673       14.113210
       425.00000       300.00000       2.3943026       14.114635
       425.00000       1000.0000       2.3943081       14.117517
       425.00000       3000.0000       2.3943083       14.142529
       425.00000       10000.000       2.3943083       14.150159
       425.00000       30000.000       2.3943083       14.178140
       425.00000       100000.00       2.3943083       14.178788
       425.00000       300000.00       2.3943083       14.177022
       450.00000    0.0010000000       2.3932617       14.076333
       450.00000    0.0030000000       2.3932665       14.076302
       450.00000     0.010000000       2.3932659       14.076319
       450.00000     0.030000000       2.3932675       14.076337
       450.00000      0.10000000       2.3932533       14.076434
       450.00000      0.30000000       2.3932777       14.076711
       450.00000       1.0000000       2.3932984       14.077669
       450.00000       3.0000000       2.3933500       14.080294
       450.00000       10.000000       2.3935449       14.088270
       450.00000       30.000000       2.3938805       14.103156
       450.00000       100.00000       2.3942093       14.117822
       450.00000       300.00000       2.3942755       14.121676
       450.00000       1000.0000       2.3943074       14.123800
       450.00000       3000.0000       2.3943083       14.136678
       450.00000       10000.000       2.3943082       14.146443
       450.00000       30000.000       2.3943083       14.186619
       450.00000       100000.00       2.3943083       14.187779
       450.00000       300000.00       2.3943083       14.185689
       475.00000    0.0010000000       2.3931857       14.081763
       475.00000    0.0030000000       2.3932590       14.081445
       475.00000     0.010000000       2.3932654       14.081409
       475.00000     0.030000000       2.3932661       14.081420
       475.00000      0.10000000       2.3932681       14.081460
       475.00000      0.30000000       2.3932739       14.081598
       475.00000       1.0000000       2.3932825       14.082084
       475.00000       3.0000000       2.3933103       14.083443
       475.00000       10.000000       2.3933974       14.087866
       475.00000       30.000000       2.3936566       14.098093
       475.00000       100.00000       2.3940482       14.115868
       475.00000       300.00000       2.3942650       14.125180
       475.00000       1000.0000       2.3943013       14.128001
       475.00000       3000.0000       2.3943080       14.134813
       475.00000       10000.000       2.3943083       14.144559
       475.00000       30000.000       2.3943084       14.185327
       475.00000       100000.00       2.3943083       14.195943
       475.00000       300000.00       2.3943083       14.193683
       500.00000    0.0010000000       2.3926467       14.090165
       500.00000    0.0030000000       2.3931588       14.087847
       500.00000     0.010000000       2.3932583       14.087413
       500.00000     0.030000000       2.3932662       14.087373
       500.00000      0.10000000       2.3932664       14.087403
       500.00000      0.30000000       2.3932689       14.087468
       500.00000       1.0000000       2.3932769       14.087726
       500.00000       3.0000000       2.3932898       14.088465
       500.00000       10.000000       2.3933427       14.090926
       500.00000       30.000000       2.3934866       14.097260
       500.00000       100.00000       2.3938408       14.112380
       500.00000       300.00000       2.3941736       14.127236
       500.00000       1000.0000       2.3942732       14.132891
       500.00000       3000.0000       2.3943033       14.135278
       500.00000       10000.000       2.3943081       14.144608
       500.00000       30000.000       2.3943083       14.183836
       500.00000       100000.00       2.3943083       14.205677
       500.00000       300000.00       2.3943083       14.202786
       575.00000    0.0010000000       2.3915145       14.125691
       575.00000    0.0030000000       2.3915526       14.125516
       575.00000     0.010000000       2.3918980       14.124154
       575.00000     0.030000000       2.3927469       14.120882
       575.00000      0.10000000       2.3931921       14.119153
       575.00000      0.30000000       2.3932608       14.118944
       575.00000       1.0000000       2.3932671       14.118972
       575.00000       3.0000000       2.3932745       14.119115
       575.00000       10.000000       2.3932837       14.119651
       575.00000       30.000000       2.3933138       14.121145
       575.00000       100.00000       2.3934269       14.125956
       575.00000       300.00000       2.3936615       14.136866
       575.00000       1000.0000       2.3940724       14.154878
       575.00000       3000.0000       2.3942702       14.163925
       575.00000       10000.000       2.3943017       14.169185
       575.00000       30000.000       2.3943080       14.184015
       575.00000       100000.00       2.3943082       14.248649
       575.00000       300000.00       2.3943084       14.297648
       650.00000    0.0010000000       2.3915138       14.155528
       650.00000    0.0030000000       2.3915116       14.155534
       650.00000     0.010000000       2.3915133       14.155525
       650.00000     0.030000000       2.3915320       14.155447
       650.00000      0.10000000       2.3917451       14.154719
       650.00000      0.30000000       2.3925265       14.152202
       650.00000       1.0000000       2.3931496       14.150155
       650.00000       3.0000000       2.3932572       14.149864
       650.00000       10.000000       2.3932531       14.149984
       650.00000       30.000000       2.3932806       14.150430
       650.00000       100.00000       2.3933120       14.151929
       650.00000       300.00000       2.3934078       14.155965
       650.00000       1000.0000       2.3936519       14.167296
       650.00000       3000.0000       2.3940346       14.184071
       650.00000       10000.000       2.3942680       14.195779
       650.00000       30000.000       2.3943009       14.203352
       650.00000       100000.00       2.3943081       14.250611
       650.00000       300000.00       2.3943083       14.539126
       725.00000    0.0010000000       2.3918734       14.207952
       725.00000    0.0030000000       2.3916443       14.207948
       725.00000     0.010000000       2.3915496       14.207954
       725.00000     0.030000000       2.3915227       14.207953
       725.00000      0.10000000       2.3915152       14.207950
       725.00000      0.30000000       2.3915458       14.207837
       725.00000       1.0000000       2.3918521       14.206996
       725.00000       3.0000000       2.3926938       14.204701
       725.00000       10.000000       2.3931844       14.203371
       725.00000       30.000000       2.3932629       14.203360
       725.00000       100.00000       2.3932832       14.203900
       725.00000       300.00000       2.3933159       14.205481
       725.00000       1000.0000       2.3934331       14.210619
       725.00000       3000.0000       2.3936938       14.222134
       725.00000       10000.000       2.3940855       14.240875
       725.00000       30000.000       2.3942568       14.251692
       725.00000       100000.00       2.3943020       14.276096
       725.00000       300000.00       2.3943081       14.474517
       800.00000    0.0010000000       2.3919253       14.293618
       800.00000    0.0030000000       2.3919253       14.293618
       800.00000     0.010000000       2.3919253       14.293618
       800.00000     0.030000000       2.3919249       14.293620
       800.00000      0.10000000       2.3917594       14.293621
       800.00000      0.30000000       2.3916048       14.293614
       800.00000       1.0000000       2.3915522       14.293582
       800.00000       3.0000000       2.3916230       14.293354
       800.00000       10.000000       2.3922722       14.291889
       800.00000       30.000000       2.3930281       14.290201
       800.00000       100.00000       2.3932372       14.289958
       800.00000       300.00000       2.3932869       14.290621
       800.00000       1000.0000       2.3933384       14.293037
       800.00000       3000.0000       2.3934745       14.299284
       800.00000       10000.000       2.3938050       14.314801
       800.00000       30000.000       2.3941644       14.331951
       800.00000       100000.00       2.3942719       14.346982
       800.00000       300000.00       2.3943031       14.388446
       900.00000    0.0010000000       2.3919253       14.411557
       900.00000    0.0030000000       2.3919274       14.411557
       900.00000     0.010000000       2.3919282       14.411557
       900.00000     0.030000000       2.3919283       14.411557
       900.00000      0.10000000       2.3919284       14.411557
       900.00000      0.30000000       2.3919283       14.411556
       900.00000       1.0000000       2.3919289       14.411553
       900.00000       3.0000000       2.3919292       14.411564
       900.00000       10.000000       2.3917848       14.411517
       900.00000       30.000000       2.3918450       14.411138
       900.00000       100.00000       2.3926564       14.409709
       900.00000       300.00000       2.3931756       14.409083
       900.00000       1000.0000       2.3932899       14.409950
       900.00000       3000.0000       2.3933671       14.412766
       900.00000       10000.000       2.3935478       14.421439
       900.00000       30000.000       2.3938862       14.437826
       900.00000       100000.00       2.3942120       14.457584
       900.00000       300000.00       2.3942769       14.477894
       1000.0000    0.0010000000       2.3918925       14.558522
       1000.0000    0.0030000000       2.3919155       14.558534
       1000.0000     0.010000000       2.3919247       14.558532
       1000.0000     0.030000000       2.3919273       14.558532
       1000.0000      0.10000000       2.3919281       14.558532
       1000.0000      0.30000000       2.3919283       14.558532
       1000.0000       1.0000000       2.3919280       14.558534
       1000.0000       3.0000000       2.3919290       14.558527
       1000.0000       10.000000       2.3919295       14.558534
       1000.0000       30.000000       2.3919597       14.558531
       1000.0000       100.00000       2.3920998       14.558414
       1000.0000       300.00000       2.3925974       14.557739
       1000.0000       1000.0000       2.3931965       14.557235
       1000.0000       3000.0000       2.3933237       14.558476
       1000.0000       10000.000       2.3934059       14.563181
       1000.0000       30000.000       2.3936423       14.574305
       1000.0000       100000.00       2.3940524       14.595694
       1000.0000       300000.00       2.3942823       14.614966
       1100.0000    0.0010000000       2.3917282       14.724680
       1100.0000    0.0030000000       2.3918391       14.724747
       1100.0000     0.010000000       2.3918950       14.724775
       1100.0000     0.030000000       2.3919167       14.724790
       1100.0000      0.10000000       2.3919253       14.724803
       1100.0000      0.30000000       2.3919284       14.724803
       1100.0000       1.0000000       2.3919294       14.724803
       1100.0000       3.0000000       2.3919298       14.724801
       1100.0000       10.000000       2.3919293       14.724807
       1100.0000       30.000000       2.3919291       14.724823
       1100.0000       100.00000       2.3919590       14.724840
       1100.0000       300.00000       2.3920542       14.724818
       1100.0000       1000.0000       2.3927191       14.724557
       1100.0000       3000.0000       2.3934832       14.724715
       1100.0000       10000.000       2.3934969       14.727290
       1100.0000       30000.000       2.3935622       14.734357
       1100.0000       100000.00       2.3938875       14.752154
       1100.0000       300000.00       2.3942589       14.773613
       1200.0000    0.0010000000       2.3939107       14.909074
       1200.0000    0.0030000000       2.3923668       14.909737
       1200.0000     0.010000000       2.3919889       14.909972
       1200.0000     0.030000000       2.3919294       14.910060
       1200.0000      0.10000000       2.3919315       14.910125
       1200.0000      0.30000000       2.3919355       14.910197
       1200.0000       1.0000000       2.3919335       14.910278
       1200.0000       3.0000000       2.3919333       14.910319
       1200.0000       10.000000       2.3919337       14.910333
       1200.0000       30.000000       2.3919323       14.910355
       1200.0000       100.00000       2.3919331       14.910382
       1200.0000       300.00000       2.3919667       14.910419
       1200.0000       1000.0000       2.3921252       14.910491
       1200.0000       3000.0000       2.3927970       14.910305
       1200.0000       10000.000       2.3936148       14.912010
       1200.0000       30000.000       2.3938715       14.916542
       1200.0000       100000.00       2.3939292       14.929992
       1200.0000       300000.00       2.3941967       14.951594
       1300.0000    0.0010000000       2.4091688       15.068756
       1300.0000    0.0030000000       2.4061880       15.086006
       1300.0000     0.010000000       2.3991738       15.098551
       1300.0000     0.030000000       2.3941533       15.102921
       1300.0000      0.10000000       2.3925188       15.104513
       1300.0000      0.30000000       2.3920997       15.104965
       1300.0000       1.0000000       2.3919811       15.105135
       1300.0000       3.0000000       2.3919650       15.105166
       1300.0000       10.000000       2.3919651       15.105184
       1300.0000       30.000000       2.3919659       15.105226
       1300.0000       100.00000       2.3919612       15.105290
       1300.0000       300.00000       2.3919642       15.105359
       1300.0000       1000.0000       2.3920232       15.105429
       1300.0000       3000.0000       2.3922580       15.104661
       1300.0000       10000.000       2.3931522       15.106982
       1300.0000       30000.000       2.3937527       15.110255
       1300.0000       100000.00       2.3940360       15.120309
       1300.0000       300000.00       2.3943859       15.139707
       1400.0000    0.0010000000       2.4086598       15.273330
       1400.0000    0.0030000000       2.4112607       15.273546
       1400.0000     0.010000000       2.4130824       15.273524
       1400.0000     0.030000000       2.4105766       15.289743
       1400.0000      0.10000000       2.4058694       15.309850
       1400.0000      0.30000000       2.3969586       15.321258
       1400.0000       1.0000000       2.3933597       15.326795
       1400.0000       3.0000000       2.3923825       15.328443
       1400.0000       10.000000       2.3920660       15.329028
       1400.0000       30.000000       2.3919916       15.329198
       1400.0000       100.00000       2.3919735       15.329255
       1400.0000       300.00000       2.3919777       15.329297
       1400.0000       1000.0000       2.3919947       15.329389
       1400.0000       3000.0000       2.3920783       15.329575
       1400.0000       10000.000       2.3925421       15.330920
       1400.0000       30000.000       2.3934382       15.333985
       1400.0000       100000.00       2.3939188       15.341865
       1400.0000       300000.00       2.3942572       15.358310
       1500.0000    0.0010000000       2.3944413       15.512921
       1500.0000    0.0030000000       2.4027320       15.514648
       1500.0000     0.010000000       2.4080884       15.515528
       1500.0000     0.030000000       2.4110800       15.515817
       1500.0000      0.10000000       2.4131151       15.515890
       1500.0000      0.30000000       2.4142385       15.515859
       1500.0000       1.0000000       2.4076336       15.544204
       1500.0000       3.0000000       2.4002169       15.555427
       1500.0000       10.000000       2.3943950       15.567202
       1500.0000       30.000000       2.3927353       15.570770
       1500.0000       100.00000       2.3921754       15.572058
       1500.0000       300.00000       2.3920305       15.572445
       1500.0000       1000.0000       2.3919995       15.572622
       1500.0000       3000.0000       2.3920313       15.572896
       1500.0000       10000.000       2.3922137       15.573859
       1500.0000       30000.000       2.3929327       15.577033
       1500.0000       100000.00       2.3937593       15.584362
       1500.0000       300000.00       2.3941404       15.598269
       1600.0000    0.0010000000       2.3551159       15.707407
       1600.0000    0.0030000000       2.3795319       15.713298
       1600.0000     0.010000000       2.3950159       15.716772
       1600.0000     0.030000000       2.4032002       15.718403
       1600.0000      0.10000000       2.4085334       15.719244
       1600.0000      0.30000000       2.4114691       15.719546
       1600.0000       1.0000000       2.4134156       15.719669
       1600.0000       3.0000000       2.4144607       15.719693
       1600.0000       10.000000       2.4070661       15.741539
       1600.0000       30.000000       2.4000156       15.757773
       1600.0000       100.00000       2.3951395       15.769141
       1600.0000       300.00000       2.3930029       15.774413
       1600.0000       1000.0000       2.3922677       15.776355
       1600.0000       3000.0000       2.3920785       15.777074
       1600.0000       10000.000       2.3921021       15.777966
       1600.0000       30000.000       2.3924930       15.780786
       1600.0000       100000.00       2.3934772       15.788884
       1600.0000       300000.00       2.3940208       15.801458
       1700.0000    0.0010000000       2.2621137       15.886534
       1700.0000    0.0030000000       2.3234023       15.903256
       1700.0000     0.010000000       2.3633103       15.913210
       1700.0000     0.030000000       2.3844453       15.918123
       1700.0000      0.10000000       2.3979079       15.920982
       1700.0000      0.30000000       2.4050934       15.922294
       1700.0000       1.0000000       2.4097739       15.922962
       1700.0000       3.0000000       2.4122980       15.923248
       1700.0000       10.000000       2.4139142       15.923397
       1700.0000       30.000000       2.4147647       15.923449
       1700.0000       100.00000       2.4047184       15.945593
       1700.0000       300.00000       2.3993042       15.961987
       1700.0000       1000.0000       2.3951528       15.972978
       1700.0000       3000.0000       2.3930422       15.978754
       1700.0000       10000.000       2.3923204       15.981327
       1700.0000       30000.000       2.3923189       15.984067
       1700.0000       100000.00       2.3931114       15.992943
       1700.0000       300000.00       2.3938735       16.006227
       1800.0000    0.0010000000       2.0814647       16.021964
       1800.0000    0.0030000000       2.2070422       16.065030
       1800.0000     0.010000000       2.2951140       16.090216
       1800.0000     0.030000000       2.3436014       16.102563
       1800.0000      0.10000000       2.3748683       16.109936
       1800.0000      0.30000000       2.3913944       16.113542
       1800.0000       1.0000000       2.4019986       16.115600
       1800.0000       3.0000000       2.4076679       16.116526
       1800.0000       10.000000       2.4113322       16.117030
       1800.0000       30.000000       2.4132648       16.117253
       1800.0000       100.00000       2.4144768       16.117377
       1800.0000       300.00000       2.4111213       16.117406
       1800.0000       1000.0000       2.4018808       16.145843
       1800.0000       3000.0000       2.3985000       16.158161
       1800.0000       10000.000       2.3945693       16.169514
       1800.0000       30000.000       2.3929431       16.175880
       1800.0000       100000.00       2.3929282       16.185733
       1800.0000       300000.00       2.3937299       16.201870
       1900.0000    0.0010000000       1.8139313       16.090250
       1900.0000    0.0030000000       2.0082743       16.181429
       1900.0000     0.010000000       2.1680244       16.238750
       1900.0000     0.030000000       2.2642139       16.266882
       1900.0000      0.10000000       2.3291474       16.283587
       1900.0000      0.30000000       2.3641941       16.291841
       1900.0000       1.0000000       2.3866225       16.296752
       1900.0000       3.0000000       2.3985328       16.299119
       1900.0000       10.000000       2.4061758       16.300454
       1900.0000       30.000000       2.4102415       16.301071
       1900.0000       100.00000       2.4128044       16.301417
       1900.0000       300.00000       2.4141343       16.301588
       1900.0000       1000.0000       2.4117080       16.301682
       1900.0000       3000.0000       2.4064770       16.309786
       1900.0000       10000.000       2.3995327       16.338279
       1900.0000       30000.000       2.3963218       16.350364
       1900.0000       100000.00       2.3936691       16.365878
       1900.0000       300000.00       2.3937375       16.386630
       2000.0000    0.0010000000       1.5453661       16.154286
       2000.0000    0.0030000000       1.7479428       16.248712
       2000.0000     0.010000000       1.9701458       16.346786
       2000.0000     0.030000000       2.1292172       16.403420
       2000.0000      0.10000000       2.2472389       16.437896
       2000.0000      0.30000000       2.3142979       16.454962
       2000.0000       1.0000000       2.3582520       16.465208
       2000.0000       3.0000000       2.3816726       16.470268
       2000.0000       10.000000       2.3966648       16.473222
       2000.0000       30.000000       2.4046087       16.474633
       2000.0000       100.00000       2.4096888       16.475435
       2000.0000       300.00000       2.4123373       16.475833
       2000.0000       1000.0000       2.4139900       16.476081
       2000.0000       3000.0000       2.4121275       16.476253
       2000.0000       10000.000       2.4080936       16.476558
       2000.0000       30000.000       2.4012913       16.505693
       2000.0000       100000.00       2.3965680       16.529504
       2000.0000       300000.00       2.3944207       16.558007
       2150.0000    0.0010000000       1.3456817       15.600577
       2150.0000    0.0030000000       1.4319124       16.324383
       2150.0000     0.010000000       1.6125886       16.480268
       2150.0000     0.030000000       1.8231202       16.553797
       2150.0000      0.10000000       2.0326828       16.627087
       2150.0000      0.30000000       2.1737866       16.669179
       2150.0000       1.0000000       2.2750123       16.695249
       2150.0000       3.0000000       2.3314899       16.708318
       2150.0000       10.000000       2.3682191       16.716191
       2150.0000       30.000000       2.3877491       16.720073
       2150.0000       100.00000       2.4002155       16.722359
       2150.0000       300.00000       2.4067993       16.723451
       2150.0000       1000.0000       2.4109487       16.724122
       2150.0000       3000.0000       2.4130935       16.724501
       2150.0000       10000.000       2.4144235       16.724936
       2150.0000       30000.000       2.4090039       16.725725
       2150.0000       100000.00       2.4073468       16.729614
       2150.0000       300000.00       2.3998558       16.781725
       2300.0000    0.0010000000       1.3020923       11.985021
       2300.0000    0.0030000000       1.3232779       14.972934
       2300.0000     0.010000000       1.3873050       16.378468
       2300.0000     0.030000000       1.5162681       16.706904
       2300.0000      0.10000000       1.7330686       16.776819
       2300.0000      0.30000000       1.9398975       16.835372
       2300.0000       1.0000000       2.1207190       16.885828
       2300.0000       3.0000000       2.2335320       16.913779
       2300.0000       10.000000       2.3112075       16.931152
       2300.0000       30.000000       2.3536157       16.939925
       2300.0000       100.00000       2.3809593       16.945193
       2300.0000       300.00000       2.3954389       16.947798
       2300.0000       1000.0000       2.4046160       16.949344
       2300.0000       3000.0000       2.4094257       16.950143
       2300.0000       10000.000       2.4124144       16.950791
       2300.0000       30000.000       2.4139717       16.951623
       2300.0000       100000.00       2.4093800       16.954634
       2300.0000       300000.00       2.4077140       16.968624
       2450.0000    0.0010000000       1.2933534       6.4948408
       2450.0000    0.0030000000       1.2986749       10.779923
       2450.0000     0.010000000       1.3162142       14.629385
       2450.0000     0.030000000       1.3610793       16.335058
       2450.0000      0.10000000       1.4782783       16.922415
       2450.0000      0.30000000       1.6617845       17.009629
       2450.0000       1.0000000       1.8929189       17.056239
       2450.0000       3.0000000       2.0721147       17.098791
       2450.0000       10.000000       2.2109298       17.130295
       2450.0000       30.000000       2.2917932       17.147174
       2450.0000       100.00000       2.3455225       17.157636
       2450.0000       300.00000       2.3743848       17.162889
       2450.0000       1000.0000       2.3928284       17.166064
       2450.0000       3000.0000       2.4025123       17.167672
       2450.0000       10000.000       2.4086098       17.168781
       2450.0000       30000.000       2.4117682       17.169759
       2450.0000       100000.00       2.4137448       17.172409
       2450.0000       300000.00       2.4096893       17.183763
       2600.0000    0.0010000000       1.2902655       3.2039301
       2600.0000    0.0030000000       1.2925030       5.9019886
       2600.0000     0.010000000       1.2978702       10.545343
       2600.0000     0.030000000       1.3117983       14.312203
       2600.0000      0.10000000       1.3555158       16.444168
       2600.0000      0.30000000       1.4523986       17.098154
       2600.0000       1.0000000       1.6434839       17.231480
       2600.0000       3.0000000       1.8553660       17.261421
       2600.0000       10.000000       2.0584939       17.299534
       2600.0000       30.000000       2.1918955       17.325944
       2600.0000       100.00000       2.2862946       17.343783
       2600.0000       300.00000       2.3386369       17.353127
       2600.0000       1000.0000       2.3726006       17.358857
       2600.0000       3000.0000       2.3906011       17.361764
       2600.0000       10000.000       2.4019834       17.363635
       2600.0000       30000.000       2.4079151       17.364938
       2600.0000       100000.00       2.4116370       17.367425
       2600.0000       300000.00       2.4136245       17.376945
       2800.0000    0.0010000000       1.2863014       1.8053668
       2800.0000    0.0030000000       1.2879775       2.6638033
       2800.0000     0.010000000       1.2906810       5.0424808
       2800.0000     0.030000000       1.2948387       8.9963861
       2800.0000      0.10000000       1.3061318       13.605767
       2800.0000      0.30000000       1.3350204       16.147454
       2800.0000       1.0000000       1.4173184       17.240660
       2800.0000       3.0000000       1.5678718       17.478797
       2800.0000       10.000000       1.7946094       17.509872
       2800.0000       30.000000       1.9936610       17.532352
       2800.0000       100.00000       2.1587694       17.557522
       2800.0000       300.00000       2.2586361       17.573423
       2800.0000       1000.0000       2.3263258       17.583951
       2800.0000       3000.0000       2.3630251       17.589461
       2800.0000       10000.000       2.3865376       17.592943
       2800.0000       30000.000       2.3988848       17.594985
       2800.0000       100000.00       2.4066433       17.597601
       2800.0000       300000.00       2.4106820       17.605411
       3000.0000    0.0010000000       1.2835259       1.4812095
       3000.0000    0.0030000000       1.2848490       1.7500816
       3000.0000     0.010000000       1.2864189       2.5970432
       3000.0000     0.030000000       1.2886653       4.5616187
       3000.0000      0.10000000       1.2932558       8.6913715
       3000.0000      0.30000000       1.3026059       13.064741
       3000.0000       1.0000000       1.3304557       16.175055
       3000.0000       3.0000000       1.3965654       17.352966
       3000.0000       10.000000       1.5486152       17.709339
       3000.0000       30.000000       1.7512452       17.744603
       3000.0000       100.00000       1.9743626       17.756507
       3000.0000       300.00000       2.1330414       17.773227
       3000.0000       1000.0000       2.2501466       17.787927
       3000.0000       3000.0000       2.3165684       17.796492
       3000.0000       10000.000       2.3601244       17.802114
       3000.0000       30000.000       2.3833046       17.805236
       3000.0000       100000.00       2.3979729       17.808273
       3000.0000       300000.00       2.4055933       17.815094
       3250.0000    0.0010000000       1.2795484       1.3836737
       3250.0000    0.0030000000       1.2812075       1.4674467
       3250.0000     0.010000000       1.2830109       1.7268825
       3250.0000     0.030000000       1.2845603       2.3754669
       3250.0000      0.10000000       1.2866232       4.2122567
       3250.0000      0.30000000       1.2900708       7.6384335
       3250.0000       1.0000000       1.2988382       12.521929
       3250.0000       3.0000000       1.3193033       15.815097
       3250.0000       10.000000       1.3785878       17.473056
       3250.0000       30.000000       1.4985085       17.947220
       3250.0000       100.00000       1.7080762       18.028794
       3250.0000       300.00000       1.9174899       18.028674
       3250.0000       1000.0000       2.1051921       18.036827
       3250.0000       3000.0000       2.2236583       18.046356
       3250.0000       10000.000       2.3057402       18.054052
       3250.0000       30000.000       2.3507171       18.058608
       3250.0000       100000.00       2.3796412       18.062396
       3250.0000       300000.00       2.3948168       18.068518
       3500.0000    0.0010000000       1.2756712       1.3647902
       3500.0000    0.0030000000       1.2775118       1.3940177
       3500.0000     0.010000000       1.2794359       1.4909806
       3500.0000     0.030000000       1.2811875       1.7426846
       3500.0000      0.10000000       1.2831233       2.4910890
       3500.0000      0.30000000       1.2851016       4.1719351
       3500.0000       1.0000000       1.2886368       7.8783874
       3500.0000       3.0000000       1.2960963       12.344485
       3500.0000       10.000000       1.3177999       16.039407
       3500.0000       30.000000       1.3692041       17.629526
       3500.0000       100.00000       1.4957177       18.208949
       3500.0000       300.00000       1.6837777       18.298440
       3500.0000       1000.0000       1.9135851       18.292336
       3500.0000       3000.0000       2.0882844       18.291539
       3500.0000       10000.000       2.2218337       18.296635
       3500.0000       30000.000       2.2990214       18.301261
       3500.0000       100000.00       2.3500638       18.305345
       3500.0000       300000.00       2.3772449       18.310953
       3750.0000    0.0010000000       1.2727365       1.3933355
       3750.0000    0.0030000000       1.2736992       1.4044670
       3750.0000     0.010000000       1.2755660       1.4418372
       3750.0000     0.030000000       1.2776356       1.5434302
       3750.0000      0.10000000       1.2798242       1.8730354
       3750.0000      0.30000000       1.2817692       2.6863895
       3750.0000       1.0000000       1.2841819       4.8115769
       3750.0000       3.0000000       1.2876435       8.4225805
       3750.0000       10.000000       1.2964041       13.233941
       3750.0000       30.000000       1.3177120       16.395226
       3750.0000       100.00000       1.3789973       17.996740
       3750.0000       300.00000       1.5007189       18.470492
       3750.0000       1000.0000       1.7106943       18.556898
       3750.0000       3000.0000       1.9196059       18.544569
       3750.0000       10000.000       2.1067282       18.537032
       3750.0000       30000.000       2.2247292       18.537448
       3750.0000       100000.00       2.3063364       18.540023
       3750.0000       300000.00       2.3509426       18.544613
       4000.0000    0.0010000000       1.2721676       1.5113571
       4000.0000    0.0030000000       1.2723401       1.5158902
       4000.0000     0.010000000       1.2728546       1.5315687
       4000.0000     0.030000000       1.2739709       1.5751586
       4000.0000      0.10000000       1.2760881       1.7199673
       4000.0000      0.30000000       1.2783960       2.1033859
       4000.0000       1.0000000       1.2808784       3.2552806
       4000.0000       3.0000000       1.2833972       5.6433886
       4000.0000       10.000000       1.2878974       9.9963110
       4000.0000       30.000000       1.2974185       14.212247
       4000.0000       100.00000       1.3258493       17.183892
       4000.0000       300.00000       1.3920143       18.359569
       4000.0000       1000.0000       1.5421351       18.758587
       4000.0000       3000.0000       1.7426684       18.802110
       4000.0000       10000.000       1.9665380       18.781846
       4000.0000       30000.000       2.1273894       18.771165
       4000.0000       100000.00       2.2465932       18.768319
       4000.0000       300000.00       2.3142095       18.770514
