T(K)  p(mbar)  mu(amu)  mean cp(kJ/kg/K)
       75.000000    0.0010000000       2.3405294       12.963003
       75.000000    0.0030000000       2.3405294       12.963003
       75.000000     0.010000000       2.3405293       12.963003
       75.000000     0.030000000       2.3405293       12.963003
       75.000000      0.10000000       2.3405293       12.963003
       75.000000      0.30000000       2.3405293       12.963003
       75.000000       1.0000000       2.3405293       12.963003
       75.000000       3.0000000       2.3405293       12.963003
       75.000000       10.000000       2.3405293       12.963003
       75.000000       30.000000       2.3405293       12.963003
       75.000000       100.00000       2.3405293       12.963003
       75.000000       300.00000       2.3405293       12.963003
       75.000000       1000.0000       2.3405293       12.963003
       75.000000       3000.0000       2.3405293       12.963003
       75.000000       10000.000       2.3405293       12.963003
       100.00000    0.0010000000       2.3425464       12.476442
       100.00000    0.0030000000       2.3425458       12.476442
       100.00000     0.010000000       2.3420692       12.476442
       100.00000     0.030000000       2.3410421       12.476442
       100.00000      0.10000000       2.3406833       12.476442
       100.00000      0.30000000       2.3405801       12.476442
       100.00000       1.0000000       2.3405447       12.476442
       100.00000       3.0000000       2.3405338       12.476442
       100.00000       10.000000       2.3405309       12.476442
       100.00000       30.000000       2.3405292       12.476442
       100.00000       100.00000       2.3405295       12.476442
       100.00000       300.00000       2.3405288       12.476442
       100.00000       1000.0000       2.3405294       12.476442
       100.00000       3000.0000       2.3405287       12.476442
       100.00000       10000.000       2.3405293       12.476442
       100.00000       30000.000       2.3405287       12.476442
       110.00000    0.0010000000       2.3425459       12.415642
       110.00000    0.0030000000       2.3425464       12.415642
       110.00000     0.010000000       2.3425458       12.415642
       110.00000     0.030000000       2.3425464       12.415642
       110.00000      0.10000000       2.3425458       12.415642
       110.00000      0.30000000       2.3419550       12.415642
       110.00000       1.0000000       2.3409565       12.415642
       110.00000       3.0000000       2.3406719       12.415642
       110.00000       10.000000       2.3405715       12.415642
       110.00000       30.000000       2.3405436       12.415642
       110.00000       100.00000       2.3405330       12.415642
       110.00000       300.00000       2.3405308       12.415642
       110.00000       1000.0000       2.3405291       12.415642
       110.00000       3000.0000       2.3405295       12.415642
       110.00000       10000.000       2.3405288       12.415642
       110.00000       30000.000       2.3405294       12.415642
       110.00000       100000.00       2.3405287       12.415642
       120.00000    0.0010000000       2.3425566       12.416975
       120.00000    0.0030000000       2.3425498       12.416975
       120.00000     0.010000000       2.3425474       12.416975
       120.00000     0.030000000       2.3425467       12.416975
       120.00000      0.10000000       2.3425465       12.416975
       120.00000      0.30000000       2.3425464       12.416975
       120.00000       1.0000000       2.3425464       12.416975
       120.00000       3.0000000       2.3425464       12.416975
       120.00000       10.000000       2.3412120       12.416975
       120.00000       30.000000       2.3407569       12.416975
       120.00000       100.00000       2.3405976       12.416975
       120.00000       300.00000       2.3405521       12.416975
       120.00000       1000.0000       2.3405362       12.416975
       120.00000       3000.0000       2.3405316       12.416975
       120.00000       10000.000       2.3405300       12.416975
       120.00000       30000.000       2.3405296       12.416975
       120.00000       100000.00       2.3405294       12.416975
       130.00000    0.0010000000       2.3429063       12.470871
       130.00000    0.0030000000       2.3426664       12.470878
       130.00000     0.010000000       2.3425824       12.470881
       130.00000     0.030000000       2.3425584       12.470881
       130.00000      0.10000000       2.3425500       12.470882
       130.00000      0.30000000       2.3425476       12.470882
       130.00000       1.0000000       2.3425468       12.470882
       130.00000       3.0000000       2.3425465       12.470882
       130.00000       10.000000       2.3425464       12.470882
       130.00000       30.000000       2.3425464       12.470882
       130.00000       100.00000       2.3412408       12.470882
       130.00000       300.00000       2.3407665       12.470882
       130.00000       1000.0000       2.3406005       12.470882
       130.00000       3000.0000       2.3405531       12.470882
       130.00000       10000.000       2.3405365       12.470882
       130.00000       30000.000       2.3405317       12.470882
       130.00000       100000.00       2.3405301       12.470882
       140.00000    0.0010000000       2.3433981       12.567476
       140.00000    0.0030000000       2.3433674       12.567694
       140.00000     0.010000000       2.3433081       12.567771
       140.00000     0.030000000       2.3427997       12.567793
       140.00000      0.10000000       2.3426226       12.567800
       140.00000      0.30000000       2.3425712       12.567803
       140.00000       1.0000000       2.3425540       12.567803
       140.00000       3.0000000       2.3425483       12.567803
       140.00000       10.000000       2.3425472       12.567804
       140.00000       30.000000       2.3425460       12.567804
       140.00000       100.00000       2.3425465       12.567804
       140.00000       300.00000       2.3422969       12.567804
       140.00000       1000.0000       2.3410598       12.567804
       140.00000       3000.0000       2.3407055       12.567804
       140.00000       10000.000       2.3405824       12.567804
       140.00000       30000.000       2.3405464       12.567804
       140.00000       100000.00       2.3405346       12.567804
       150.00000    0.0010000000       2.3442061       12.691911
       150.00000    0.0030000000       2.3436373       12.696090
       150.00000     0.010000000       2.3434383       12.697554
       150.00000     0.030000000       2.3433814       12.697972
       150.00000      0.10000000       2.3433615       12.698119
       150.00000      0.30000000       2.3429043       12.698161
       150.00000       1.0000000       2.3426538       12.698175
       150.00000       3.0000000       2.3425822       12.698179
       150.00000       10.000000       2.3425571       12.698181
       150.00000       30.000000       2.3425500       12.698181
       150.00000       100.00000       2.3425475       12.698181
       150.00000       300.00000       2.3425468       12.698182
       150.00000       1000.0000       2.3425465       12.698182
       150.00000       3000.0000       2.3415380       12.698182
       150.00000       10000.000       2.3408320       12.698182
       150.00000       30000.000       2.3406302       12.698182
       150.00000       100000.00       2.3405596       12.698182
       160.00000    0.0010000000       2.3544917       12.769742
       160.00000    0.0030000000       2.3470695       12.824746
       160.00000     0.010000000       2.3444632       12.844129
       160.00000     0.030000000       2.3437216       12.849679
       160.00000      0.10000000       2.3434641       12.851623
       160.00000      0.30000000       2.3433896       12.852179
       160.00000       1.0000000       2.3433635       12.852373
       160.00000       3.0000000       2.3429084       12.852429
       160.00000       10.000000       2.3426545       12.852448
       160.00000       30.000000       2.3425820       12.852454
       160.00000       100.00000       2.3425566       12.852456
       160.00000       300.00000       2.3425494       12.852456
       160.00000       1000.0000       2.3425469       12.852457
       160.00000       3000.0000       2.3425461       12.852457
       160.00000       10000.000       2.3419172       12.852457
       160.00000       30000.000       2.3409916       12.852457
       160.00000       100000.00       2.3406676       12.852457
       170.00000    0.0010000000       2.3561616       12.924621
       170.00000    0.0030000000       2.3561624       12.924619
       170.00000     0.010000000       2.3541309       12.939779
       170.00000     0.030000000       2.3469300       12.993840
       170.00000      0.10000000       2.3444270       13.012887
       170.00000      0.30000000       2.3437063       13.018341
       170.00000       1.0000000       2.3434573       13.020251
       170.00000       3.0000000       2.3433852       13.020797
       170.00000       10.000000       2.3433632       13.020988
       170.00000       30.000000       2.3428257       13.021043
       170.00000       100.00000       2.3426297       13.021062
       170.00000       300.00000       2.3425738       13.021067
       170.00000       1000.0000       2.3425542       13.021069
       170.00000       3000.0000       2.3425486       13.021070
       170.00000       10000.000       2.3425466       13.021070
       170.00000       30000.000       2.3423040       13.021070
       170.00000       100000.00       2.3410613       13.021070
       180.00000    0.0010000000       2.3561657       13.096508
       180.00000    0.0030000000       2.3561651       13.096509
       180.00000     0.010000000       2.3561657       13.096508
       180.00000     0.030000000       2.3561651       13.096509
       180.00000      0.10000000       2.3514563       13.132268
       180.00000      0.30000000       2.3460389       13.173655
       180.00000       1.0000000       2.3441626       13.188213
       180.00000       3.0000000       2.3436207       13.192379
       180.00000       10.000000       2.3434343       13.193838
       180.00000       30.000000       2.3433832       13.194254
       180.00000       100.00000       2.3430664       13.194400
       180.00000       300.00000       2.3427218       13.194442
       180.00000       1000.0000       2.3426012       13.194457
       180.00000       3000.0000       2.3425668       13.194461
       180.00000       10000.000       2.3425547       13.194462
       180.00000       30000.000       2.3425513       13.194463
       180.00000       100000.00       2.3422920       13.194463
       190.00000    0.0010000000       2.3561690       13.263659
       190.00000    0.0030000000       2.3561690       13.263659
       190.00000     0.010000000       2.3561690       13.263659
       190.00000     0.030000000       2.3561690       13.263659
       190.00000      0.10000000       2.3561690       13.263659
       190.00000      0.30000000       2.3561690       13.263660
       190.00000       1.0000000       2.3482789       13.324608
       190.00000       3.0000000       2.3450038       13.350225
       190.00000       10.000000       2.3438498       13.359218
       190.00000       30.000000       2.3435241       13.361790
       190.00000       100.00000       2.3434119       13.362690
       190.00000       300.00000       2.3433789       13.362948
       190.00000       1000.0000       2.3428187       13.363038
       190.00000       3000.0000       2.3426435       13.363065
       190.00000       10000.000       2.3425821       13.363072
       190.00000       30000.000       2.3425646       13.363075
       190.00000       100000.00       2.3425585       13.363075
       200.00000    0.0010000000       2.3561723       13.416596
       200.00000    0.0030000000       2.3561690       13.416597
       200.00000     0.010000000       2.3561683       13.416597
       200.00000     0.030000000       2.3561690       13.416597
       200.00000      0.10000000       2.3561683       13.416597
       200.00000      0.30000000       2.3561690       13.416598
       200.00000       1.0000000       2.3561723       13.416598
       200.00000       3.0000000       2.3517177       13.451536
       200.00000       10.000000       2.3458656       13.497529
       200.00000       30.000000       2.3441959       13.510739
       200.00000       100.00000       2.3436135       13.515368
       200.00000       300.00000       2.3434461       13.516691
       200.00000       1000.0000       2.3433876       13.517156
       200.00000       3000.0000       2.3429348       13.517297
       200.00000       10000.000       2.3426695       13.517334
       200.00000       30000.000       2.3425937       13.517345
       200.00000       100000.00       2.3425672       13.517349
       210.00000    0.0010000000       2.3561722       13.548345
       210.00000    0.0030000000       2.3561723       13.548348
       210.00000     0.010000000       2.3561723       13.548348
       210.00000     0.030000000       2.3561683       13.548350
       210.00000      0.10000000       2.3561690       13.548350
       210.00000      0.30000000       2.3561683       13.548351
       210.00000       1.0000000       2.3561723       13.548350
       210.00000       3.0000000       2.3561887       13.548357
       210.00000       10.000000       2.3542643       13.563563
       210.00000       30.000000       2.3469971       13.621231
       210.00000       100.00000       2.3444540       13.641538
       210.00000       300.00000       2.3437263       13.647356
       210.00000       1000.0000       2.3434716       13.649399
       210.00000       3000.0000       2.3433988       13.650018
       210.00000       10000.000       2.3429838       13.650184
       210.00000       30000.000       2.3426985       13.650231
       210.00000       100000.00       2.3425986       13.650247
       220.00000    0.0010000000       2.3561715       13.661935
       220.00000    0.0030000000       2.3561722       13.661960
       220.00000     0.010000000       2.3561723       13.661963
       220.00000     0.030000000       2.3561723       13.661963
       220.00000      0.10000000       2.3561723       13.661963
       220.00000      0.30000000       2.3561690       13.661966
       220.00000       1.0000000       2.3561723       13.661965
       220.00000       3.0000000       2.3561889       13.661971
       220.00000       10.000000       2.3561916       13.661977
       220.00000       30.000000       2.3561957       13.662033
       220.00000       100.00000       2.3475148       13.731444
       220.00000       300.00000       2.3447474       13.753735
       220.00000       1000.0000       2.3437778       13.761577
       220.00000       3000.0000       2.3435015       13.763952
       220.00000       10000.000       2.3434040       13.764593
       220.00000       30000.000       2.3430326       13.764773
       220.00000       100000.00       2.3426987       13.764836
       230.00000    0.0010000000       2.3561712       13.762610
       230.00000    0.0030000000       2.3561718       13.762824
       230.00000     0.010000000       2.3561715       13.762850
       230.00000     0.030000000       2.3561722       13.762852
       230.00000      0.10000000       2.3561717       13.762851
       230.00000      0.30000000       2.3561723       13.762852
       230.00000       1.0000000       2.3561717       13.762853
       230.00000       3.0000000       2.3561881       13.762860
       230.00000       10.000000       2.3561920       13.762866
       230.00000       30.000000       2.3561950       13.762922
       230.00000       100.00000       2.3561992       13.762989
       230.00000       300.00000       2.3480509       13.828699
       230.00000       1000.0000       2.3447693       13.855413
       230.00000       3000.0000       2.3438314       13.863516
       230.00000       10000.000       2.3435031       13.865708
       230.00000       30000.000       2.3434094       13.866324
       230.00000       100000.00       2.3429854       13.866540
       240.00000    0.0010000000       2.3561498       13.851709
       240.00000    0.0030000000       2.3561719       13.852936
       240.00000     0.010000000       2.3561752       13.853106
       240.00000     0.030000000       2.3561714       13.853123
       240.00000      0.10000000       2.3561723       13.853124
       240.00000      0.30000000       2.3561716       13.853125
       240.00000       1.0000000       2.3561723       13.853126
       240.00000       3.0000000       2.3561716       13.853132
       240.00000       10.000000       2.3561922       13.853138
       240.00000       30.000000       2.3561956       13.853194
       240.00000       100.00000       2.3561990       13.853263
       240.00000       300.00000       2.3561991       13.853564
       240.00000       1000.0000       2.3476666       13.923166
       240.00000       3000.0000       2.3447974       13.948076
       240.00000       10000.000       2.3437929       13.954840
       240.00000       30000.000       2.3435060       13.956742
       240.00000       100000.00       2.3434055       13.957408
       250.00000    0.0010000000       2.3560694       13.926858
       250.00000    0.0030000000       2.3561612       13.930583
       250.00000     0.010000000       2.3561736       13.931492
       250.00000     0.030000000       2.3561752       13.931585
       250.00000      0.10000000       2.3561722       13.931595
       250.00000      0.30000000       2.3561721       13.931598
       250.00000       1.0000000       2.3561723       13.931598
       250.00000       3.0000000       2.3561722       13.931604
       250.00000       10.000000       2.3561920       13.931611
       250.00000       30.000000       2.3561917       13.931668
       250.00000       100.00000       2.3561958       13.931737
       250.00000       300.00000       2.3561992       13.932036
       250.00000       1000.0000       2.3554001       13.940100
       250.00000       3000.0000       2.3473770       14.009772
       250.00000       10000.000       2.3445670       14.028805
       250.00000       30000.000       2.3437640       14.034168
       250.00000       100000.00       2.3434829       14.036045
       260.00000    0.0010000000       2.3559781       13.989115
       260.00000    0.0030000000       2.3561139       13.994215
       260.00000     0.010000000       2.3561692       13.997236
       260.00000     0.030000000       2.3561776       13.997692
       260.00000      0.10000000       2.3561753       13.997749
       260.00000      0.30000000       2.3561723       13.997755
       260.00000       1.0000000       2.3561721       13.997758
       260.00000       3.0000000       2.3561722       13.997762
       260.00000       10.000000       2.3561920       13.997770
       260.00000       30.000000       2.3561923       13.997826
       260.00000       100.00000       2.3561957       13.997896
       260.00000       300.00000       2.3561992       13.998194
       260.00000       1000.0000       2.3561992       13.999886
       260.00000       3000.0000       2.3537366       14.033414
       260.00000       10000.000       2.3464761       14.082672
       260.00000       30000.000       2.3444005       14.096606
       260.00000       100000.00       2.3436738       14.101490
       260.00000       300000.00       2.3434662       14.102886
       270.00000    0.0010000000       2.3558203       14.043641
       270.00000    0.0030000000       2.3560136       14.047128
       270.00000     0.010000000       2.3561431       14.052379
       270.00000     0.030000000       2.3561774       14.054064
       270.00000      0.10000000       2.3561789       14.054320
       270.00000      0.30000000       2.3561754       14.054345
       270.00000       1.0000000       2.3561721       14.054351
       270.00000       3.0000000       2.3561723       14.054355
       270.00000       10.000000       2.3561915       14.054361
       270.00000       30.000000       2.3561922       14.054419
       270.00000       100.00000       2.3561957       14.054488
       270.00000       300.00000       2.3561997       14.054788
       270.00000       1000.0000       2.3561992       14.056478
       270.00000       3000.0000       2.3561999       14.073479
       270.00000       10000.000       2.3508628       14.110135
       270.00000       30000.000       2.3458640       14.143770
       270.00000       100000.00       2.3441128       14.155590
       270.00000       300000.00       2.3436132       14.158973
       275.00000    0.0010000000       2.3557017       14.069396
       275.00000    0.0030000000       2.3559623       14.071391
       275.00000     0.010000000       2.3561183       14.076880
       275.00000     0.030000000       2.3561723       14.079602
       275.00000      0.10000000       2.3561782       14.080115
       275.00000      0.30000000       2.3561756       14.080163
       275.00000       1.0000000       2.3561756       14.080170
       275.00000       3.0000000       2.3561722       14.080177
       275.00000       10.000000       2.3561914       14.080185
       275.00000       30.000000       2.3561921       14.080242
       275.00000       100.00000       2.3561958       14.080310
       275.00000       300.00000       2.3561999       14.080609
       275.00000       1000.0000       2.3561991       14.082302
       275.00000       3000.0000       2.3561999       14.099302
       275.00000       10000.000       2.3546370       14.110727
       275.00000       30000.000       2.3471231       14.161259
       275.00000       100000.00       2.3444906       14.179059
       275.00000       300000.00       2.3437391       14.184158
       280.00000    0.0010000000       2.3555388       14.094480
       280.00000    0.0030000000       2.3558806       14.094953
       280.00000     0.010000000       2.3560662       14.099933
       280.00000     0.030000000       2.3561630       14.103760
       280.00000      0.10000000       2.3561799       14.104718
       280.00000      0.30000000       2.3561792       14.104818
       280.00000       1.0000000       2.3561754       14.104832
       280.00000       3.0000000       2.3561755       14.104837
       280.00000       10.000000       2.3561723       14.104846
       280.00000       30.000000       2.3561955       14.104901
       280.00000       100.00000       2.3561957       14.104972
       280.00000       300.00000       2.3561992       14.105271
       280.00000       1000.0000       2.3561992       14.106962
       280.00000       3000.0000       2.3561992       14.123963
       280.00000       10000.000       2.3561992       14.124941
       280.00000       30000.000       2.3486343       14.175841
       280.00000       100000.00       2.3449444       14.200829
       280.00000       300000.00       2.3438898       14.207993
       290.00000    0.0010000000       2.3552903       14.140816
       290.00000    0.0030000000       2.3556497       14.139828
       290.00000     0.010000000       2.3559789       14.142184
       290.00000     0.030000000       2.3561258       14.147204
       290.00000      0.10000000       2.3561743       14.149819
       290.00000      0.30000000       2.3561817       14.150180
       290.00000       1.0000000       2.3561786       14.150226
       290.00000       3.0000000       2.3561754       14.150237
       290.00000       10.000000       2.3561755       14.150244
       290.00000       30.000000       2.3561953       14.150302
       290.00000       100.00000       2.3561956       14.150372
       290.00000       300.00000       2.3561990       14.150671
       290.00000       1000.0000       2.3561992       14.152361
       290.00000       3000.0000       2.3561991       14.169363
       290.00000       10000.000       2.3561991       14.170341
       290.00000       30000.000       2.3533693       14.189406
       290.00000       100000.00       2.3463658       14.236869
       290.00000       300000.00       2.3443637       14.250517
       300.00000    0.0010000000       2.3557759       14.174863
       300.00000    0.0030000000       2.3557938       14.175720
       300.00000     0.010000000       2.3558620       14.178322
       300.00000     0.030000000       2.3559529       14.183154
       300.00000      0.10000000       2.3560613       14.187903
       300.00000      0.30000000       2.3560841       14.189030
       300.00000       1.0000000       2.3560867       14.189185
       300.00000       3.0000000       2.3560871       14.189204
       300.00000       10.000000       2.3560870       14.189213
       300.00000       30.000000       2.3560870       14.189271
       300.00000       100.00000       2.3560869       14.189343
       300.00000       300.00000       2.3560869       14.189644
       300.00000       1000.0000       2.3560869       14.191335
       300.00000       3000.0000       2.3560869       14.208325
       300.00000       10000.000       2.3560869       14.209303
       300.00000       30000.000       2.3560869       14.209291
       300.00000       100000.00       2.3487189       14.259229
       300.00000       300000.00       2.3450781       14.284093
       310.00000    0.0010000000       2.3557727       14.206195
       310.00000    0.0030000000       2.3557810       14.206681
       310.00000     0.010000000       2.3558114       14.208257
       310.00000     0.030000000       2.3558988       14.211814
       310.00000      0.10000000       2.3560259       14.217592
       310.00000      0.30000000       2.3560778       14.220236
       310.00000       1.0000000       2.3560867       14.220716
       310.00000       3.0000000       2.3560869       14.220767
       310.00000       10.000000       2.3560877       14.220780
       310.00000       30.000000       2.3560869       14.220838
       310.00000       100.00000       2.3560875       14.220910
       310.00000       300.00000       2.3560869       14.221211
       310.00000       1000.0000       2.3560875       14.222901
       310.00000       3000.0000       2.3560869       14.239893
       310.00000       10000.000       2.3560875       14.240870
       310.00000       30000.000       2.3560869       14.240859
       310.00000       100000.00       2.3528153       14.262971
       310.00000       300000.00       2.3464443       14.306467
       320.00000    0.0010000000       2.3557706       14.232127
       320.00000    0.0030000000       2.3557755       14.232409
       320.00000     0.010000000       2.3557951       14.233353
       320.00000     0.030000000       2.3558587       14.235716
       320.00000      0.10000000       2.3559571       14.240998
       320.00000      0.30000000       2.3560591       14.245399
       320.00000       1.0000000       2.3560843       14.246679
       320.00000       3.0000000       2.3560873       14.246823
       320.00000       10.000000       2.3560871       14.246846
       320.00000       30.000000       2.3560876       14.246906
       320.00000       100.00000       2.3560869       14.246977
       320.00000       300.00000       2.3560875       14.247279
       320.00000       1000.0000       2.3560869       14.248969
       320.00000       3000.0000       2.3560875       14.265960
       320.00000       10000.000       2.3560869       14.266937
       320.00000       30000.000       2.3560875       14.266926
       320.00000       100000.00       2.3560869       14.266783
       320.00000       300000.00       2.3486438       14.317522
       330.00000    0.0010000000       2.3557697       14.255048
       330.00000    0.0030000000       2.3557725       14.255216
       330.00000     0.010000000       2.3557822       14.255789
       330.00000     0.030000000       2.3558116       14.257299
       330.00000      0.10000000       2.3559085       14.261364
       330.00000      0.30000000       2.3560262       14.266685
       330.00000       1.0000000       2.3560797       14.269408
       330.00000       3.0000000       2.3560868       14.269795
       330.00000       10.000000       2.3560870       14.269849
       330.00000       30.000000       2.3560876       14.269911
       330.00000       100.00000       2.3560869       14.269983
       330.00000       300.00000       2.3560875       14.270284
       330.00000       1000.0000       2.3560869       14.271975
       330.00000       3000.0000       2.3560875       14.288966
       330.00000       10000.000       2.3560869       14.289943
       330.00000       30000.000       2.3560875       14.289932
       330.00000       100000.00       2.3560869       14.289788
       330.00000       300000.00       2.3520743       14.316985
       340.00000    0.0010000000       2.3557691       14.275726
       340.00000    0.0030000000       2.3557708       14.275828
       340.00000     0.010000000       2.3557768       14.276181
       340.00000     0.030000000       2.3557966       14.277140
       340.00000      0.10000000       2.3558694       14.280009
       340.00000      0.30000000       2.3559826       14.285065
       340.00000       1.0000000       2.3560653       14.289501
       340.00000       3.0000000       2.3560853       14.290444
       340.00000       10.000000       2.3560868       14.290576
       340.00000       30.000000       2.3560876       14.290645
       340.00000       100.00000       2.3560869       14.290717
       340.00000       300.00000       2.3560875       14.291019
       340.00000       1000.0000       2.3560869       14.292709
       340.00000       3000.0000       2.3560875       14.309700
       340.00000       10000.000       2.3560869       14.310677
       340.00000       30000.000       2.3560875       14.310666
       340.00000       100000.00       2.3560869       14.310523
       340.00000       300000.00       2.3560875       14.310168
       350.00000    0.0010000000       2.3557687       14.293294
       350.00000    0.0030000000       2.3557699       14.293358
       350.00000     0.010000000       2.3557736       14.293580
       350.00000     0.030000000       2.3557841       14.294195
       350.00000      0.10000000       2.3558411       14.296143
       350.00000      0.30000000       2.3559184       14.300268
       350.00000       1.0000000       2.3560441       14.305875
       350.00000       3.0000000       2.3560818       14.307844
       350.00000       10.000000       2.3560865       14.308162
       350.00000       30.000000       2.3560875       14.308249
       350.00000       100.00000       2.3560870       14.308324
       350.00000       300.00000       2.3560876       14.308625
       350.00000       1000.0000       2.3560869       14.310316
       350.00000       3000.0000       2.3560875       14.327307
       350.00000       10000.000       2.3560869       14.328284
       350.00000       30000.000       2.3560875       14.328273
       350.00000       100000.00       2.3560869       14.328129
       350.00000       300000.00       2.3560875       14.327774
       375.00000    0.0010000000       2.3557684       14.323041
       375.00000    0.0030000000       2.3557687       14.323063
       375.00000     0.010000000       2.3557700       14.323139
       375.00000     0.030000000       2.3557737       14.323353
       375.00000      0.10000000       2.3557860       14.324080
       375.00000      0.30000000       2.3558417       14.325956
       375.00000       1.0000000       2.3559279       14.330647
       375.00000       3.0000000       2.3560450       14.335724
       375.00000       10.000000       2.3560824       14.337722
       375.00000       30.000000       2.3560865       14.338021
       375.00000       100.00000       2.3560869       14.338120
       375.00000       300.00000       2.3560870       14.338419
       375.00000       1000.0000       2.3560869       14.340080
       375.00000       3000.0000       2.3560869       14.356730
       375.00000       10000.000       2.3560869       14.357763
       375.00000       30000.000       2.3560869       14.358095
       375.00000       100000.00       2.3560869       14.357965
       375.00000       300000.00       2.3560869       14.357602
       400.00000    0.0010000000       2.3557672       14.343037
       400.00000    0.0030000000       2.3557673       14.343046
       400.00000     0.010000000       2.3557678       14.343075
       400.00000     0.030000000       2.3557692       14.343158
       400.00000      0.10000000       2.3557743       14.343444
       400.00000      0.30000000       2.3557909       14.344233
       400.00000       1.0000000       2.3558562       14.346663
       400.00000       3.0000000       2.3559429       14.351373
       400.00000       10.000000       2.3560565       14.356464
       400.00000       30.000000       2.3560830       14.357851
       400.00000       100.00000       2.3560856       14.358096
       400.00000       300.00000       2.3560864       14.358348
       400.00000       1000.0000       2.3560859       14.359621
       400.00000       3000.0000       2.3560865       14.371830
       400.00000       10000.000       2.3560858       14.373580
       400.00000       30000.000       2.3560865       14.378401
       400.00000       100000.00       2.3560858       14.378441
       400.00000       300000.00       2.3560865       14.377977
       425.00000    0.0010000000       2.3557672       14.355825
       425.00000    0.0030000000       2.3557674       14.355829
       425.00000     0.010000000       2.3557675       14.355841
       425.00000     0.030000000       2.3557682       14.355877
       425.00000      0.10000000       2.3557702       14.356000
       425.00000      0.30000000       2.3557763       14.356347
       425.00000       1.0000000       2.3557990       14.357498
       425.00000       3.0000000       2.3558696       14.360292
       425.00000       10.000000       2.3559960       14.365948
       425.00000       30.000000       2.3560653       14.369821
       425.00000       100.00000       2.3560841       14.370783
       425.00000       300.00000       2.3560864       14.371054
       425.00000       1000.0000       2.3560858       14.371960
       425.00000       3000.0000       2.3560865       14.380009
       425.00000       10000.000       2.3560858       14.382464
       425.00000       30000.000       2.3560865       14.391470
       425.00000       100000.00       2.3560858       14.391678
       425.00000       300000.00       2.3560865       14.391110
       450.00000    0.0010000000       2.3557668       14.363236
       450.00000    0.0030000000       2.3557671       14.363236
       450.00000     0.010000000       2.3557672       14.363242
       450.00000     0.030000000       2.3557675       14.363258
       450.00000      0.10000000       2.3557685       14.363316
       450.00000      0.30000000       2.3557714       14.363478
       450.00000       1.0000000       2.3557808       14.364037
       450.00000       3.0000000       2.3558099       14.365514
       450.00000       10.000000       2.3559040       14.369524
       450.00000       30.000000       2.3560230       14.374921
       450.00000       100.00000       2.3560781       14.377811
       450.00000       300.00000       2.3560850       14.378346
       450.00000       1000.0000       2.3560858       14.378929
       450.00000       3000.0000       2.3560859       14.383065
       450.00000       10000.000       2.3560858       14.386207
       450.00000       30000.000       2.3560858       14.399137
       450.00000       100000.00       2.3560858       14.399511
       450.00000       300000.00       2.3560858       14.398838
       475.00000    0.0010000000       2.3557626       14.367987
       475.00000    0.0030000000       2.3557665       14.367964
       475.00000     0.010000000       2.3557671       14.367963
       475.00000     0.030000000       2.3557672       14.367972
       475.00000      0.10000000       2.3557678       14.368000
       475.00000      0.30000000       2.3557692       14.368082
       475.00000       1.0000000       2.3557742       14.368365
       475.00000       3.0000000       2.3557906       14.369147
       475.00000       10.000000       2.3558549       14.371557
       475.00000       30.000000       2.3559413       14.376260
       475.00000       100.00000       2.3560558       14.381403
       475.00000       300.00000       2.3560822       14.382858
       475.00000       1000.0000       2.3560861       14.383395
       475.00000       3000.0000       2.3560858       14.385553
       475.00000       10000.000       2.3560865       14.388685
       475.00000       30000.000       2.3560858       14.401806
       475.00000       100000.00       2.3560865       14.405223
       475.00000       300000.00       2.3560858       14.404495
       500.00000    0.0010000000       2.3557078       14.373888
       500.00000    0.0030000000       2.3557604       14.373617
       500.00000     0.010000000       2.3557665       14.373583
       500.00000     0.030000000       2.3557672       14.373583
       500.00000      0.10000000       2.3557674       14.373599
       500.00000      0.30000000       2.3557683       14.373642
       500.00000       1.0000000       2.3557709       14.373795
       500.00000       3.0000000       2.3557783       14.374223
       500.00000       10.000000       2.3558054       14.375622
       500.00000       30.000000       2.3558841       14.378893
       500.00000       100.00000       2.3560139       14.384745
       500.00000       300.00000       2.3560746       14.387940
       500.00000       1000.0000       2.3560847       14.388766
       500.00000       3000.0000       2.3560863       14.389409
       500.00000       10000.000       2.3560859       14.392399
       500.00000       30000.000       2.3560865       14.405023
       500.00000       100000.00       2.3560858       14.412053
       500.00000       300000.00       2.3560865       14.411122
       575.00000    0.0010000000       2.3552192       14.406447
       575.00000    0.0030000000       2.3552745       14.406285
       575.00000     0.010000000       2.3554855       14.405414
       575.00000     0.030000000       2.3557164       14.404545
       575.00000      0.10000000       2.3557622       14.404337
       575.00000      0.30000000       2.3557668       14.404324
       575.00000       1.0000000       2.3557678       14.404353
       575.00000       3.0000000       2.3557694       14.404443
       575.00000       10.000000       2.3557748       14.404753
       575.00000       30.000000       2.3557925       14.405609
       575.00000       100.00000       2.3558604       14.408208
       575.00000       300.00000       2.3559498       14.413099
       575.00000       1000.0000       2.3560595       14.418079
       575.00000       3000.0000       2.3560829       14.419545
       575.00000       10000.000       2.3560856       14.420922
       575.00000       30000.000       2.3560859       14.425666
       575.00000       100000.00       2.3560859       14.446465
       575.00000       300000.00       2.3560858       14.462235
       650.00000    0.0010000000       2.3552175       14.436197
       650.00000    0.0030000000       2.3552157       14.436196
       650.00000     0.010000000       2.3552164       14.436187
       650.00000     0.030000000       2.3552578       14.436109
       650.00000      0.10000000       2.3554156       14.435567
       650.00000      0.30000000       2.3556597       14.434700
       650.00000       1.0000000       2.3557583       14.434400
       650.00000       3.0000000       2.3557667       14.434394
       650.00000       10.000000       2.3557692       14.434480
       650.00000       30.000000       2.3557737       14.434739
       650.00000       100.00000       2.3557916       14.435603
       650.00000       300.00000       2.3558518       14.437802
       650.00000       1000.0000       2.3559456       14.442970
       650.00000       3000.0000       2.3560531       14.447846
       650.00000       10000.000       2.3560826       14.449932
       650.00000       30000.000       2.3560855       14.452038
       650.00000       100000.00       2.3560859       14.467208
       650.00000       300000.00       2.3560859       14.560063
       725.00000    0.0010000000       2.3553534       14.488910
       725.00000    0.0030000000       2.3553534       14.488910
       725.00000     0.010000000       2.3552863       14.488911
       725.00000     0.030000000       2.3552384       14.488909
       725.00000      0.10000000       2.3552249       14.488900
       725.00000      0.30000000       2.3552691       14.488806
       725.00000       1.0000000       2.3554589       14.488237
       725.00000       3.0000000       2.3557029       14.487572
       725.00000       10.000000       2.3557619       14.487417
       725.00000       30.000000       2.3557689       14.487494
       725.00000       100.00000       2.3557752       14.487821
       725.00000       300.00000       2.3557937       14.488726
       725.00000       1000.0000       2.3558634       14.491472
       725.00000       3000.0000       2.3559545       14.496535
       725.00000       10000.000       2.3560613       14.501616
       725.00000       30000.000       2.3560838       14.503703
       725.00000       100000.00       2.3560857       14.511270
       725.00000       300000.00       2.3560865       14.575106
       800.00000    0.0010000000       2.3553536       14.575591
       800.00000    0.0030000000       2.3553536       14.575591
       800.00000     0.010000000       2.3553536       14.575591
       800.00000     0.030000000       2.3553536       14.575591
       800.00000      0.10000000       2.3553536       14.575591
       800.00000      0.30000000       2.3553545       14.575588
       800.00000       1.0000000       2.3552765       14.575562
       800.00000       3.0000000       2.3553420       14.575353
       800.00000       10.000000       2.3556132       14.574692
       800.00000       30.000000       2.3557464       14.574406
       800.00000       100.00000       2.3557691       14.574497
       800.00000       300.00000       2.3557775       14.574905
       800.00000       1000.0000       2.3558034       14.576266
       800.00000       3000.0000       2.3558800       14.579487
       800.00000       10000.000       2.3560087       14.585575
       800.00000       30000.000       2.3560694       14.589567
       800.00000       100000.00       2.3560849       14.593319
       800.00000       300000.00       2.3560867       14.606523
       900.00000    0.0010000000       2.3553540       14.694927
       900.00000    0.0030000000       2.3553547       14.694927
       900.00000     0.010000000       2.3553540       14.694927
       900.00000     0.030000000       2.3553545       14.694927
       900.00000      0.10000000       2.3553539       14.694927
       900.00000      0.30000000       2.3553544       14.694928
       900.00000       1.0000000       2.3553538       14.694929
       900.00000       3.0000000       2.3553567       14.694925
       900.00000       10.000000       2.3554022       14.694877
       900.00000       30.000000       2.3555586       14.694605
       900.00000       100.00000       2.3557399       14.694169
       900.00000       300.00000       2.3557784       14.694208
       900.00000       1000.0000       2.3557853       14.694781
       900.00000       3000.0000       2.3558123       14.696345
       900.00000       10000.000       2.3559067       14.700608
       900.00000       30000.000       2.3560257       14.706455
       900.00000       100000.00       2.3560817       14.710932
       900.00000       300000.00       2.3560919       14.716759
       1000.0000    0.0010000000       2.3553501       14.843947
       1000.0000    0.0030000000       2.3553535       14.843949
       1000.0000     0.010000000       2.3553548       14.843949
       1000.0000     0.030000000       2.3553548       14.843951
       1000.0000      0.10000000       2.3553546       14.843951
       1000.0000      0.30000000       2.3553544       14.843951
       1000.0000       1.0000000       2.3553542       14.843951
       1000.0000       3.0000000       2.3553542       14.843952
       1000.0000       10.000000       2.3553554       14.843952
       1000.0000       30.000000       2.3553659       14.843946
       1000.0000       100.00000       2.3554859       14.843823
       1000.0000       300.00000       2.3557530       14.843555
       1000.0000       1000.0000       2.3558953       14.843667
       1000.0000       3000.0000       2.3558444       14.844452
       1000.0000       10000.000       2.3558771       14.846962
       1000.0000       30000.000       2.3559582       14.851971
       1000.0000       100000.00       2.3560801       14.858283
       1000.0000       300000.00       2.3561123       14.862871
       1100.0000    0.0010000000       2.3553714       15.012625
       1100.0000    0.0030000000       2.3553569       15.012644
       1100.0000     0.010000000       2.3553596       15.012656
       1100.0000     0.030000000       2.3553587       15.012678
       1100.0000      0.10000000       2.3553592       15.012700
       1100.0000      0.30000000       2.3553583       15.012719
       1100.0000       1.0000000       2.3553573       15.012731
       1100.0000       3.0000000       2.3553563       15.012739
       1100.0000       10.000000       2.3553558       15.012745
       1100.0000       30.000000       2.3553565       15.012750
       1100.0000       100.00000       2.3553676       15.012754
       1100.0000       300.00000       2.3554674       15.012714
       1100.0000       1000.0000       2.3557570       15.012612
       1100.0000       3000.0000       2.3559086       15.012927
       1100.0000       10000.000       2.3559669       15.014391
       1100.0000       30000.000       2.3560121       15.017954
       1100.0000       100000.00       2.3560738       15.024724
       1100.0000       300000.00       2.3561140       15.030019
       1200.0000    0.0010000000       2.3587526       15.197896
       1200.0000    0.0030000000       2.3564086       15.200067
       1200.0000     0.010000000       2.3556435       15.200862
       1200.0000     0.030000000       2.3554373       15.201096
       1200.0000      0.10000000       2.3553796       15.201175
       1200.0000      0.30000000       2.3553668       15.201199
       1200.0000       1.0000000       2.3553682       15.201206
       1200.0000       3.0000000       2.3553661       15.201211
       1200.0000       10.000000       2.3553679       15.201214
       1200.0000       30.000000       2.3553675       15.201225
       1200.0000       100.00000       2.3553706       15.201240
       1200.0000       300.00000       2.3553852       15.201263
       1200.0000       1000.0000       2.3555172       15.201293
       1200.0000       3000.0000       2.3557959       15.201323
       1200.0000       10000.000       2.3559429       15.202359
       1200.0000       30000.000       2.3560158       15.204822
       1200.0000       100000.00       2.3561134       15.210759
       1200.0000       300000.00       2.3561923       15.217113
       1300.0000    0.0010000000       2.3613864       15.381442
       1300.0000    0.0030000000       2.3619998       15.381389
       1300.0000     0.010000000       2.3611195       15.387392
       1300.0000     0.030000000       2.3591396       15.393190
       1300.0000      0.10000000       2.3565363       15.397392
       1300.0000      0.30000000       2.3557358       15.398876
       1300.0000       1.0000000       2.3554623       15.399410
       1300.0000       3.0000000       2.3553918       15.399566
       1300.0000       10.000000       2.3553713       15.399623
       1300.0000       30.000000       2.3553709       15.399637
       1300.0000       100.00000       2.3553694       15.399649
       1300.0000       300.00000       2.3553747       15.399672
       1300.0000       1000.0000       2.3554257       15.399729
       1300.0000       3000.0000       2.3555846       15.399576
       1300.0000       10000.000       2.3558723       15.400625
       1300.0000       30000.000       2.3559696       15.402369
       1300.0000       100000.00       2.3560732       15.407153
       1300.0000       300000.00       2.3561904       15.413928
       1400.0000    0.0010000000       2.3571321       15.609174
       1400.0000    0.0030000000       2.3594588       15.609253
       1400.0000     0.010000000       2.3609801       15.609255
       1400.0000     0.030000000       2.3617904       15.609232
       1400.0000      0.10000000       2.3623057       15.609206
       1400.0000      0.30000000       2.3612555       15.614568
       1400.0000       1.0000000       2.3580839       15.621274
       1400.0000       3.0000000       2.3564360       15.625059
       1400.0000       10.000000       2.3556698       15.626914
       1400.0000       30.000000       2.3554598       15.627461
       1400.0000       100.00000       2.3553939       15.627656
       1400.0000       300.00000       2.3553779       15.627728
       1400.0000       1000.0000       2.3553850       15.627799
       1400.0000       3000.0000       2.3554537       15.627950
       1400.0000       10000.000       2.3556928       15.628679
       1400.0000       30000.000       2.3559252       15.630123
       1400.0000       100000.00       2.3560404       15.633936
       1400.0000       300000.00       2.3561585       15.640461
       1500.0000    0.0010000000       2.3433928       15.855759
       1500.0000    0.0030000000       2.3513965       15.856347
       1500.0000     0.010000000       2.3564431       15.856655
       1500.0000     0.030000000       2.3590955       15.856764
       1500.0000      0.10000000       2.3607989       15.856800
       1500.0000      0.30000000       2.3617020       15.856802
       1500.0000       1.0000000       2.3622531       15.856793
       1500.0000       3.0000000       2.3623035       15.856786
       1500.0000       10.000000       2.3586611       15.866156
       1500.0000       30.000000       2.3574456       15.869882
       1500.0000       100.00000       2.3559948       15.873794
       1500.0000       300.00000       2.3555712       15.874989
       1500.0000       1000.0000       2.3554304       15.875453
       1500.0000       3000.0000       2.3554085       15.875710
       1500.0000       10000.000       2.3555352       15.876370
       1500.0000       30000.000       2.3558189       15.877904
       1500.0000       100000.00       2.3560071       15.881157
       1500.0000       300000.00       2.3561097       15.887097
       1600.0000    0.0010000000       2.3049865       16.060653
       1600.0000    0.0030000000       2.3288134       16.062618
       1600.0000     0.010000000       2.3438605       16.063784
       1600.0000     0.030000000       2.3517191       16.064337
       1600.0000      0.10000000       2.3566740       16.064623
       1600.0000      0.30000000       2.3592789       16.064735
       1600.0000       1.0000000       2.3609083       16.064790
       1600.0000       3.0000000       2.3617755       16.064801
       1600.0000       10.000000       2.3623007       16.064804
       1600.0000       30.000000       2.3616140       16.064804
       1600.0000       100.00000       2.3589311       16.072029
       1600.0000       300.00000       2.3575255       16.077420
       1600.0000       1000.0000       2.3562734       16.081205
       1600.0000       3000.0000       2.3556750       16.083047
       1600.0000       10000.000       2.3555342       16.084152
       1600.0000       30000.000       2.3556956       16.085932
       1600.0000       100000.00       2.3559532       16.089275
       1600.0000       300000.00       2.3560807       16.094630
       1700.0000    0.0010000000       2.2140577       16.260439
       1700.0000    0.0030000000       2.2739811       16.266009
       1700.0000     0.010000000       2.3129833       16.269326
       1700.0000     0.030000000       2.3335695       16.270964
       1700.0000      0.10000000       2.3465458       16.271929
       1700.0000      0.30000000       2.3533361       16.272372
       1700.0000       1.0000000       2.3576303       16.272607
       1700.0000       3.0000000       2.3598525       16.272704
       1700.0000       10.000000       2.3612463       16.272759
       1700.0000       30.000000       2.3619732       16.272781
       1700.0000       100.00000       2.3624238       16.272793
       1700.0000       300.00000       2.3608413       16.272800
       1700.0000       1000.0000       2.3587178       16.280148
       1700.0000       3000.0000       2.3574745       16.285652
       1700.0000       10000.000       2.3563494       16.289634
       1700.0000       30000.000       2.3558425       16.292960
       1700.0000       100000.00       2.3559582       16.297414
       1700.0000       300000.00       2.3560745       16.302674
       1800.0000    0.0010000000       2.0378176       16.438929
       1800.0000    0.0030000000       2.1603578       16.453332
       1800.0000     0.010000000       2.2463830       16.461721
       1800.0000     0.030000000       2.2937488       16.465837
       1800.0000      0.10000000       2.3242005       16.468299
       1800.0000      0.30000000       2.3402209       16.469505
       1800.0000       1.0000000       2.3503060       16.470200
       1800.0000       3.0000000       2.3555878       16.470520
       1800.0000       10.000000       2.3589027       16.470693
       1800.0000       30.000000       2.3606134       16.470772
       1800.0000       100.00000       2.3616793       16.470818
       1800.0000       300.00000       2.3622136       16.470845
       1800.0000       1000.0000       2.3612230       16.470872
       1800.0000       3000.0000       2.3603408       16.470932
       1800.0000       10000.000       2.3581895       16.480608
       1800.0000       30000.000       2.3574156       16.485797
       1800.0000       100000.00       2.3564836       16.493819
       1800.0000       300000.00       2.3562269       16.500754
       1900.0000    0.0010000000       1.7784621       16.587939
       1900.0000    0.0030000000       1.9668311       16.618747
       1900.0000     0.010000000       2.1224012       16.637959
       1900.0000     0.030000000       2.2162561       16.647342
       1900.0000      0.10000000       2.2796382       16.652908
       1900.0000      0.30000000       2.3137885       16.655662
       1900.0000       1.0000000       2.3355444       16.657303
       1900.0000       3.0000000       2.3469192       16.658100
       1900.0000       10.000000       2.3540830       16.658551
       1900.0000       30.000000       2.3578135       16.658760
       1900.0000       100.00000       2.3601533       16.658879
       1900.0000       300.00000       2.3613347       16.658939
       1900.0000       1000.0000       2.3620745       16.658994
       1900.0000       3000.0000       2.3615334       16.659056
       1900.0000       10000.000       2.3603645       16.659270
       1900.0000       30000.000       2.3595926       16.662848
       1900.0000       100000.00       2.3578714       16.676499
       1900.0000       300000.00       2.3571516       16.686801
       2000.0000    0.0010000000       1.5226127       16.728427
       2000.0000    0.0030000000       1.7156002       16.760691
       2000.0000     0.010000000       1.9301453       16.793899
       2000.0000     0.030000000       2.0847548       16.812896
       2000.0000      0.10000000       2.1997859       16.824401
       2000.0000      0.30000000       2.2651834       16.830093
       2000.0000       1.0000000       2.3079896       16.833507
       2000.0000       3.0000000       2.3306836       16.835199
       2000.0000       10.000000       2.3450476       16.836189
       2000.0000       30.000000       2.3525454       16.836664
       2000.0000       100.00000       2.3572296       16.836939
       2000.0000       300.00000       2.3596523       16.837074
       2000.0000       1000.0000       2.3611601       16.837161
       2000.0000       3000.0000       2.3619321       16.837243
       2000.0000       10000.000       2.3614414       16.837436
       2000.0000       30000.000       2.3604041       16.838097
       2000.0000       100000.00       2.3602363       16.841702
       2000.0000       300000.00       2.3585251       16.859797
       2150.0000    0.0010000000       1.3322077       16.699573
       2150.0000    0.0030000000       1.4155435       16.955799
       2150.0000     0.010000000       1.5874634       17.008733
       2150.0000     0.030000000       1.7888000       17.033713
       2150.0000      0.10000000       1.9913180       17.058411
       2150.0000      0.30000000       2.1284181       17.072504
       2150.0000       1.0000000       2.2269701       17.081192
       2150.0000       3.0000000       2.2819616       17.085553
       2150.0000       10.000000       2.3176106       17.088178
       2150.0000       30.000000       2.3364175       17.089474
       2150.0000       100.00000       2.3482928       17.090244
       2150.0000       300.00000       2.3544514       17.090614
       2150.0000       1000.0000       2.3583011       17.090845
       2150.0000       3000.0000       2.3602819       17.090982
       2150.0000       10000.000       2.3615080       17.091175
       2150.0000       30000.000       2.3621648       17.091687
       2150.0000       100000.00       2.3606389       17.094502
       2150.0000       300000.00       2.3604419       17.103782
       2300.0000    0.0010000000       1.2893964       15.230081
       2300.0000    0.0030000000       1.3102950       16.606547
       2300.0000     0.010000000       1.3728387       17.127843
       2300.0000     0.030000000       1.4966699       17.240234
       2300.0000      0.10000000       1.7033013       17.263824
       2300.0000      0.30000000       1.9020773       17.283597
       2300.0000       1.0000000       2.0771549       17.300523
       2300.0000       3.0000000       2.1867510       17.309859
       2300.0000       10.000000       2.2622652       17.315649
       2300.0000       30.000000       2.3034353       17.318567
       2300.0000       100.00000       2.3298148       17.320327
       2300.0000       300.00000       2.3436462       17.321199
       2300.0000       1000.0000       2.3523353       17.321722
       2300.0000       3000.0000       2.3568218       17.322005
       2300.0000       10000.000       2.3596228       17.322258
       2300.0000       30000.000       2.3610519       17.322702
       2300.0000       100000.00       2.3619732       17.324884
       2300.0000       300000.00       2.3609167       17.334039
       2450.0000    0.0010000000       1.2807748       11.067207
       2450.0000    0.0030000000       1.2860285       14.642317
       2450.0000     0.010000000       1.3033501       16.604206
       2450.0000     0.030000000       1.3474092       17.260116
       2450.0000      0.10000000       1.4608449       17.463509
       2450.0000      0.30000000       1.6360913       17.492774
       2450.0000       1.0000000       1.8574551       17.508507
       2450.0000       3.0000000       2.0304242       17.522786
       2450.0000       10.000000       2.1649892       17.533315
       2450.0000       30.000000       2.2434928       17.538946
       2450.0000       100.00000       2.2955850       17.542431
       2450.0000       300.00000       2.3234203       17.544188
       2450.0000       1000.0000       2.3410712       17.545251
       2450.0000       3000.0000       2.3502565       17.545796
       2450.0000       10000.000       2.3560011       17.546190
       2450.0000       30000.000       2.3589637       17.546643
       2450.0000       100000.00       2.3608266       17.548404
       2450.0000       300000.00       2.3618640       17.556625
       2600.0000    0.0010000000       1.2781795       6.1451949
       2600.0000    0.0030000000       1.2800322       10.425502
       2600.0000     0.010000000       1.2852510       14.586536
       2600.0000     0.030000000       1.2990085       16.589411
       2600.0000      0.10000000       1.3420283       17.430358
       2600.0000      0.30000000       1.4362591       17.657663
       2600.0000       1.0000000       1.6193796       17.702349
       2600.0000       3.0000000       1.8220594       17.712434
       2600.0000       10.000000       2.0176777       17.725231
       2600.0000       30.000000       2.1467573       17.734059
       2600.0000       100.00000       2.2382557       17.740002
       2600.0000       300.00000       2.2889276       17.743115
       2600.0000       1000.0000       2.3216572       17.745029
       2600.0000       3000.0000       2.3388807       17.746002
       2600.0000       10000.000       2.3496966       17.746651
       2600.0000       30000.000       2.3553006       17.747177
       2600.0000       100000.00       2.3587991       17.748691
       2600.0000       300000.00       2.3606471       17.755765
       2800.0000    0.0010000000       1.2766201       2.8175116
       2800.0000    0.0030000000       1.2772825       5.0171310
       2800.0000     0.010000000       1.2788541       9.3498259
       2800.0000     0.030000000       1.2824396       13.580514
       2800.0000      0.10000000       1.2934498       16.407654
       2800.0000      0.30000000       1.3219379       17.475603
       2800.0000       1.0000000       1.4024990       17.865024
       2800.0000       3.0000000       1.5477903       17.945028
       2800.0000       10.000000       1.7647153       17.955342
       2800.0000       30.000000       1.9557837       17.962882
       2800.0000       100.00000       2.1150602       17.971306
       2800.0000       300.00000       2.2116266       17.976612
       2800.0000       1000.0000       2.2770590       17.980117
       2800.0000       3000.0000       2.3124060       17.981951
       2800.0000       10000.000       2.3349308       17.983119
       2800.0000       30000.000       2.3466894       17.983864
       2800.0000       100000.00       2.3540367       17.985225
       2800.0000       300000.00       2.3578364       17.990979
       3000.0000    0.0010000000       1.2755266       1.8508607
       3000.0000    0.0030000000       1.2760934       2.6879880
       3000.0000     0.010000000       1.2768197       4.9256724
       3000.0000     0.030000000       1.2780306       8.7145760
       3000.0000      0.10000000       1.2814506       13.439551
       3000.0000      0.30000000       1.2901540       16.270718
       3000.0000       1.0000000       1.3174943       17.626204
       3000.0000       3.0000000       1.3823899       18.048944
       3000.0000       10.000000       1.5297732       18.168772
       3000.0000       30.000000       1.7239899       18.180325
       3000.0000       100.00000       1.9378594       18.184301
       3000.0000       300.00000       2.0906065       18.189891
       3000.0000       1000.0000       2.2035995       18.194781
       3000.0000       3000.0000       2.2676810       18.197636
       3000.0000       10000.000       2.3095960       18.199495
       3000.0000       30000.000       2.3317865       18.200567
       3000.0000       100000.00       2.3457577       18.201925
       3000.0000       300000.00       2.3529742       18.206708
       3250.0000    0.0010000000       1.2742479       1.5084149
       3250.0000    0.0030000000       1.2747450       1.7909179
       3250.0000     0.010000000       1.2753845       2.6373981
       3250.0000     0.030000000       1.2760906       4.4741806
       3250.0000      0.10000000       1.2772717       8.2950917
       3250.0000      0.30000000       1.2796932       12.656724
       3250.0000       1.0000000       1.2871884       16.150730
       3250.0000       3.0000000       1.3067676       17.658395
       3250.0000       10.000000       1.3649212       18.266366
       3250.0000       30.000000       1.4818019       18.425776
       3250.0000       100.00000       1.6834924       18.452318
       3250.0000       300.00000       1.8840556       18.452179
       3250.0000       1000.0000       2.0643143       18.454864
       3250.0000       3000.0000       2.1783393       18.458017
       3250.0000       10000.000       2.2573621       18.460552
       3250.0000       30000.000       2.3005576       18.462054
       3250.0000       100000.00       2.3282311       18.463503
       3250.0000       300000.00       2.3426842       18.467453
       3500.0000    0.0010000000       1.2729607       1.4921306
       3500.0000    0.0030000000       1.2734938       1.5867523
       3500.0000     0.010000000       1.2741519       1.8977620
       3500.0000     0.030000000       1.2747608       2.6930338
       3500.0000      0.10000000       1.2755570       4.8214177
       3500.0000      0.30000000       1.2766607       8.3830280
       3500.0000       1.0000000       1.2792434       13.073351
       3500.0000       3.0000000       1.2855846       16.228983
       3500.0000       10.000000       1.3058877       17.914386
       3500.0000       30.000000       1.3559773       18.490190
       3500.0000       100.00000       1.4794079       18.683168
       3500.0000       300.00000       1.6608383       18.711776
       3500.0000       1000.0000       1.8810281       18.709420
       3500.0000       3000.0000       2.0485746       18.709055
       3500.0000       10000.000       2.1768427       18.710674
       3500.0000       30000.000       2.2510163       18.712135
       3500.0000       100000.00       2.2999469       18.713563
       3500.0000       300000.00       2.3259296       18.716927
       3750.0000    0.0010000000       1.2724530       1.8013192
       3750.0000    0.0030000000       1.2725795       1.8357077
       3750.0000     0.010000000       1.2729208       1.9523073
       3750.0000     0.030000000       1.2734799       2.2651242
       3750.0000      0.10000000       1.2742610       3.2352415
       3750.0000      0.30000000       1.2750841       5.3849328
       3750.0000       1.0000000       1.2764174       9.5544322
       3750.0000       3.0000000       1.2789874       13.750411
       3750.0000       10.000000       1.2866453       16.871003
       3750.0000       30.000000       1.3066143       18.218997
       3750.0000       100.00000       1.3660249       18.780390
       3750.0000       300.00000       1.4846472       18.934374
       3750.0000       1000.0000       1.6872562       18.961007
       3750.0000       3000.0000       1.8874719       18.956372
       3750.0000       10000.000       2.0667532       18.953625
       3750.0000       30000.000       2.1799128       18.953623
       3750.0000       100000.00       2.2581728       18.954452
       3750.0000       300000.00       2.3008684       18.957242
       4000.0000    0.0010000000       1.2723601       2.8603474
       4000.0000    0.0030000000       1.2723998       2.8726450
       4000.0000     0.010000000       1.2724664       2.9154240
       4000.0000     0.030000000       1.2726228       3.0352560
       4000.0000      0.10000000       1.2730386       3.4313881
       4000.0000      0.30000000       1.2737233       4.4259331
       4000.0000       1.0000000       1.2747869       7.0003848
       4000.0000       3.0000000       1.2762463       10.916560
       4000.0000       10.000000       1.2797114       15.150505
       4000.0000       30.000000       1.2882512       17.508524
       4000.0000       100.00000       1.3152186       18.670928
       4000.0000       300.00000       1.3793762       19.062192
       4000.0000       1000.0000       1.5253184       19.187586
       4000.0000       3000.0000       1.7186011       19.199594
       4000.0000       10000.000       1.9330625       19.191976
       4000.0000       30000.000       2.0870438       19.188089
       4000.0000       100000.00       2.2012129       19.187046
       4000.0000       300000.00       2.2659792       19.188938
