T(K)  p(mbar)  mu(amu)  mean cp(kJ/kg/K)
       75.000000    0.0010000000       2.3424348       12.947760
       75.000000    0.0030000000       2.3424347       12.947760
       75.000000     0.010000000       2.3424347       12.947760
       75.000000     0.030000000       2.3424347       12.947760
       75.000000      0.10000000       2.3424347       12.947760
       75.000000      0.30000000       2.3424347       12.947760
       75.000000       1.0000000       2.3424347       12.947760
       75.000000       3.0000000       2.3424347       12.947760
       75.000000       10.000000       2.3424347       12.947760
       75.000000       30.000000       2.3424347       12.947760
       75.000000       100.00000       2.3424347       12.947760
       75.000000       300.00000       2.3424347       12.947760
       75.000000       1000.0000       2.3424347       12.947760
       75.000000       3000.0000       2.3424347       12.947760
       75.000000       10000.000       2.3424347       12.947760
       100.00000    0.0010000000       2.3435684       12.461925
       100.00000    0.0030000000       2.3435684       12.461925
       100.00000     0.010000000       2.3435684       12.461925
       100.00000     0.030000000       2.3429477       12.461925
       100.00000      0.10000000       2.3425886       12.461925
       100.00000      0.30000000       2.3424860       12.461925
       100.00000       1.0000000       2.3424501       12.461925
       100.00000       3.0000000       2.3424398       12.461925
       100.00000       10.000000       2.3424362       12.461925
       100.00000       30.000000       2.3424352       12.461925
       100.00000       100.00000       2.3424348       12.461925
       100.00000       300.00000       2.3424347       12.461925
       100.00000       1000.0000       2.3424347       12.461925
       100.00000       3000.0000       2.3424347       12.461925
       100.00000       10000.000       2.3424347       12.461925
       100.00000       30000.000       2.3424347       12.461925
       110.00000    0.0010000000       2.3435685       12.401230
       110.00000    0.0030000000       2.3435684       12.401230
       110.00000     0.010000000       2.3435684       12.401230
       110.00000     0.030000000       2.3435684       12.401230
       110.00000      0.10000000       2.3435684       12.401230
       110.00000      0.30000000       2.3435684       12.401230
       110.00000       1.0000000       2.3428621       12.401230
       110.00000       3.0000000       2.3425772       12.401230
       110.00000       10.000000       2.3424774       12.401230
       110.00000       30.000000       2.3424489       12.401230
       110.00000       100.00000       2.3424390       12.401230
       110.00000       300.00000       2.3424361       12.401230
       110.00000       1000.0000       2.3424351       12.401230
       110.00000       3000.0000       2.3424348       12.401230
       110.00000       10000.000       2.3424347       12.401230
       110.00000       30000.000       2.3424347       12.401230
       110.00000       100000.00       2.3424347       12.401230
       120.00000    0.0010000000       2.3435786       12.402582
       120.00000    0.0030000000       2.3435718       12.402582
       120.00000     0.010000000       2.3435694       12.402582
       120.00000     0.030000000       2.3435687       12.402582
       120.00000      0.10000000       2.3435685       12.402582
       120.00000      0.30000000       2.3435684       12.402582
       120.00000       1.0000000       2.3435684       12.402582
       120.00000       3.0000000       2.3435684       12.402582
       120.00000       10.000000       2.3431169       12.402582
       120.00000       30.000000       2.3426621       12.402582
       120.00000       100.00000       2.3425029       12.402582
       120.00000       300.00000       2.3424574       12.402582
       120.00000       1000.0000       2.3424415       12.402582
       120.00000       3000.0000       2.3424370       12.402582
       120.00000       10000.000       2.3424354       12.402582
       120.00000       30000.000       2.3424349       12.402582
       120.00000       100000.00       2.3424348       12.402582
       130.00000    0.0010000000       2.3439281       12.456424
       130.00000    0.0030000000       2.3436883       12.456432
       130.00000     0.010000000       2.3436043       12.456434
       130.00000     0.030000000       2.3435804       12.456435
       130.00000      0.10000000       2.3435720       12.456435
       130.00000      0.30000000       2.3435696       12.456435
       130.00000       1.0000000       2.3435687       12.456435
       130.00000       3.0000000       2.3435685       12.456435
       130.00000       10.000000       2.3435684       12.456435
       130.00000       30.000000       2.3435684       12.456435
       130.00000       100.00000       2.3431457       12.456435
       130.00000       300.00000       2.3426717       12.456435
       130.00000       1000.0000       2.3425058       12.456435
       130.00000       3000.0000       2.3424584       12.456435
       130.00000       10000.000       2.3424418       12.456435
       130.00000       30000.000       2.3424371       12.456435
       130.00000       100000.00       2.3424354       12.456435
       140.00000    0.0010000000       2.3440668       12.552917
       140.00000    0.0030000000       2.3440368       12.553134
       140.00000     0.010000000       2.3440262       12.553211
       140.00000     0.030000000       2.3438221       12.553232
       140.00000      0.10000000       2.3436445       12.553240
       140.00000      0.30000000       2.3435937       12.553242
       140.00000       1.0000000       2.3435760       12.553243
       140.00000       3.0000000       2.3435709       12.553243
       140.00000       10.000000       2.3435691       12.553243
       140.00000       30.000000       2.3435686       12.553243
       140.00000       100.00000       2.3435684       12.553243
       140.00000       300.00000       2.3435684       12.553243
       140.00000       1000.0000       2.3429648       12.553243
       140.00000       3000.0000       2.3426114       12.553243
       140.00000       10000.000       2.3424877       12.553243
       140.00000       30000.000       2.3424523       12.553243
       140.00000       100000.00       2.3424400       12.553243
       150.00000    0.0010000000       2.3448745       12.677210
       150.00000    0.0030000000       2.3443060       12.681377
       150.00000     0.010000000       2.3441071       12.682836
       150.00000     0.030000000       2.3440502       12.683253
       150.00000      0.10000000       2.3440303       12.683399
       150.00000      0.30000000       2.3439260       12.683440
       150.00000       1.0000000       2.3436757       12.683455
       150.00000       3.0000000       2.3436041       12.683459
       150.00000       10.000000       2.3435791       12.683461
       150.00000       30.000000       2.3435719       12.683461
       150.00000       100.00000       2.3435694       12.683461
       150.00000       300.00000       2.3435687       12.683461
       150.00000       1000.0000       2.3435685       12.683461
       150.00000       3000.0000       2.3434427       12.683461
       150.00000       10000.000       2.3427371       12.683461
       150.00000       30000.000       2.3425355       12.683461
       150.00000       100000.00       2.3424649       12.683461
       160.00000    0.0010000000       2.3512166       12.784087
       160.00000    0.0030000000       2.3477204       12.809920
       160.00000     0.010000000       2.3451185       12.829241
       160.00000     0.030000000       2.3443940       12.834774
       160.00000      0.10000000       2.3441334       12.836712
       160.00000      0.30000000       2.3440590       12.837266
       160.00000       1.0000000       2.3440329       12.837460
       160.00000       3.0000000       2.3439308       12.837515
       160.00000       10.000000       2.3436771       12.837535
       160.00000       30.000000       2.3436046       12.837540
       160.00000       100.00000       2.3435792       12.837542
       160.00000       300.00000       2.3435720       12.837543
       160.00000       1000.0000       2.3435694       12.837543
       160.00000       3000.0000       2.3435687       12.837543
       160.00000       10000.000       2.3435685       12.837543
       160.00000       30000.000       2.3428972       12.837543
       160.00000       100000.00       2.3425734       12.837543
       170.00000    0.0010000000       2.3512167       12.951663
       170.00000    0.0030000000       2.3512166       12.951664
       170.00000     0.010000000       2.3512166       12.951664
       170.00000     0.030000000       2.3476002       12.978799
       170.00000      0.10000000       2.3450793       12.997787
       170.00000      0.30000000       2.3443620       13.003223
       170.00000       1.0000000       2.3441099       13.005127
       170.00000       3.0000000       2.3440578       13.005671
       170.00000       10.000000       2.3440325       13.005861
       170.00000       30.000000       2.3438481       13.005916
       170.00000       100.00000       2.3436523       13.005935
       170.00000       300.00000       2.3435963       13.005940
       170.00000       1000.0000       2.3435767       13.005942
       170.00000       3000.0000       2.3435712       13.005943
       170.00000       10000.000       2.3435692       13.005943
       170.00000       30000.000       2.3435686       13.005943
       170.00000       100000.00       2.3429670       13.005943
       180.00000    0.0010000000       2.3512198       13.123991
       180.00000    0.0030000000       2.3512198       13.123991
       180.00000     0.010000000       2.3512198       13.123991
       180.00000     0.030000000       2.3512198       13.123991
       180.00000      0.10000000       2.3512198       13.123991
       180.00000      0.30000000       2.3467103       13.158374
       180.00000       1.0000000       2.3448145       13.172885
       180.00000       3.0000000       2.3442727       13.177038
       180.00000       10.000000       2.3440863       13.178492
       180.00000       30.000000       2.3440520       13.178908
       180.00000       100.00000       2.3440330       13.179053
       180.00000       300.00000       2.3437437       13.179095
       180.00000       1000.0000       2.3436232       13.179109
       180.00000       3000.0000       2.3435887       13.179114
       180.00000       10000.000       2.3435767       13.179115
       180.00000       30000.000       2.3435732       13.179115
       180.00000       100000.00       2.3435720       13.179115
       190.00000    0.0010000000       2.3512230       13.291567
       190.00000    0.0030000000       2.3512230       13.291567
       190.00000     0.010000000       2.3512230       13.291567
       190.00000     0.030000000       2.3512230       13.291567
       190.00000      0.10000000       2.3512230       13.291567
       190.00000      0.30000000       2.3512230       13.291567
       190.00000       1.0000000       2.3489453       13.309169
       190.00000       3.0000000       2.3456521       13.334706
       190.00000       10.000000       2.3444992       13.343669
       190.00000       30.000000       2.3441928       13.346233
       190.00000       100.00000       2.3440775       13.347130
       190.00000       300.00000       2.3440445       13.347387
       190.00000       1000.0000       2.3438374       13.347477
       190.00000       3000.0000       2.3436623       13.347504
       190.00000       10000.000       2.3436010       13.347511
       190.00000       30000.000       2.3435834       13.347513
       190.00000       100000.00       2.3435773       13.347514
       200.00000    0.0010000000       2.3512230       13.444895
       200.00000    0.0030000000       2.3512230       13.444895
       200.00000     0.010000000       2.3512230       13.444895
       200.00000     0.030000000       2.3512230       13.444895
       200.00000      0.10000000       2.3512230       13.444895
       200.00000      0.30000000       2.3512230       13.444896
       200.00000       1.0000000       2.3512230       13.444896
       200.00000       3.0000000       2.3512230       13.444899
       200.00000       10.000000       2.3465133       13.481838
       200.00000       30.000000       2.3448649       13.495005
       200.00000       100.00000       2.3442796       13.499619
       200.00000       300.00000       2.3441123       13.500938
       200.00000       1000.0000       2.3440538       13.501401
       200.00000       3000.0000       2.3439541       13.501542
       200.00000       10000.000       2.3436889       13.501579
       200.00000       30000.000       2.3436132       13.501590
       200.00000       100000.00       2.3435867       13.501594
       210.00000    0.0010000000       2.3512237       13.576986
       210.00000    0.0030000000       2.3512230       13.576987
       210.00000     0.010000000       2.3512237       13.576987
       210.00000     0.030000000       2.3512230       13.576987
       210.00000      0.10000000       2.3512237       13.576987
       210.00000      0.30000000       2.3512230       13.576987
       210.00000       1.0000000       2.3512237       13.576988
       210.00000       3.0000000       2.3512230       13.576991
       210.00000       10.000000       2.3512237       13.576995
       210.00000       30.000000       2.3476647       13.605403
       210.00000       100.00000       2.3451191       13.625646
       210.00000       300.00000       2.3443924       13.631446
       210.00000       1000.0000       2.3441372       13.633482
       210.00000       3000.0000       2.3440651       13.634099
       210.00000       10000.000       2.3440024       13.634265
       210.00000       30000.000       2.3437179       13.634311
       210.00000       100000.00       2.3436175       13.634328
       220.00000    0.0010000000       2.3512229       13.690887
       220.00000    0.0030000000       2.3512230       13.690896
       220.00000     0.010000000       2.3512230       13.690897
       220.00000     0.030000000       2.3512230       13.690897
       220.00000      0.10000000       2.3512230       13.690897
       220.00000      0.30000000       2.3512230       13.690897
       220.00000       1.0000000       2.3512230       13.690898
       220.00000       3.0000000       2.3512230       13.690901
       220.00000       10.000000       2.3512231       13.690905
       220.00000       30.000000       2.3512462       13.690936
       220.00000       100.00000       2.3481783       13.715492
       220.00000       300.00000       2.3454117       13.737712
       220.00000       1000.0000       2.3444432       13.745529
       220.00000       3000.0000       2.3441664       13.747897
       220.00000       10000.000       2.3440696       13.748535
       220.00000       30000.000       2.3440419       13.748714
       220.00000       100000.00       2.3437174       13.748777
       230.00000    0.0010000000       2.3512249       13.791970
       230.00000    0.0030000000       2.3512261       13.792039
       230.00000     0.010000000       2.3512230       13.792048
       230.00000     0.030000000       2.3512230       13.792049
       230.00000      0.10000000       2.3512230       13.792049
       230.00000      0.30000000       2.3512230       13.792049
       230.00000       1.0000000       2.3512230       13.792050
       230.00000       3.0000000       2.3512230       13.792053
       230.00000       10.000000       2.3512232       13.792056
       230.00000       30.000000       2.3512462       13.792088
       230.00000       100.00000       2.3512470       13.792127
       230.00000       300.00000       2.3487141       13.812639
       230.00000       1000.0000       2.3454348       13.839269
       230.00000       3000.0000       2.3444968       13.847347
       230.00000       10000.000       2.3441693       13.849531
       230.00000       30000.000       2.3440749       13.850145
       230.00000       100000.00       2.3440046       13.850360
       240.00000    0.0010000000       2.3512179       13.882073
       240.00000    0.0030000000       2.3512259       13.882498
       240.00000     0.010000000       2.3512266       13.882554
       240.00000     0.030000000       2.3512230       13.882559
       240.00000      0.10000000       2.3512237       13.882560
       240.00000      0.30000000       2.3512230       13.882560
       240.00000       1.0000000       2.3512237       13.882561
       240.00000       3.0000000       2.3512230       13.882564
       240.00000       10.000000       2.3512237       13.882568
       240.00000       30.000000       2.3512468       13.882599
       240.00000       100.00000       2.3512464       13.882638
       240.00000       300.00000       2.3512470       13.882808
       240.00000       1000.0000       2.3483300       13.906990
       240.00000       3000.0000       2.3454630       13.931823
       240.00000       10000.000       2.3444584       13.938563
       240.00000       30000.000       2.3441721       13.940459
       240.00000       100000.00       2.3440711       13.941122
       250.00000    0.0010000000       2.3511916       13.959304
       250.00000    0.0030000000       2.3512239       13.960901
       250.00000     0.010000000       2.3512262       13.961209
       250.00000     0.030000000       2.3512262       13.961238
       250.00000      0.10000000       2.3512230       13.961242
       250.00000      0.30000000       2.3512230       13.961243
       250.00000       1.0000000       2.3512230       13.961244
       250.00000       3.0000000       2.3512230       13.961247
       250.00000       10.000000       2.3512231       13.961251
       250.00000       30.000000       2.3512264       13.961281
       250.00000       100.00000       2.3512469       13.961322
       250.00000       300.00000       2.3512468       13.961492
       250.00000       1000.0000       2.3512468       13.962445
       250.00000       3000.0000       2.3480412       13.993490
       250.00000       10000.000       2.3452327       14.012457
       250.00000       30000.000       2.3444300       14.017801
       250.00000       100000.00       2.3441491       14.019672
       260.00000    0.0010000000       2.3511268       14.023410
       260.00000    0.0030000000       2.3512055       14.026214
       260.00000     0.010000000       2.3512263       14.027412
       260.00000     0.030000000       2.3512264       14.027563
       260.00000      0.10000000       2.3512261       14.027580
       260.00000      0.30000000       2.3512269       14.027581
       260.00000       1.0000000       2.3512229       14.027584
       260.00000       3.0000000       2.3512230       14.027586
       260.00000       10.000000       2.3512231       14.027590
       260.00000       30.000000       2.3512271       14.027621
       260.00000       100.00000       2.3512464       14.027660
       260.00000       300.00000       2.3512462       14.027831
       260.00000       1000.0000       2.3512462       14.028784
       260.00000       3000.0000       2.3512464       14.038364
       260.00000       10000.000       2.3471401       14.066297
       260.00000       30000.000       2.3450656       14.080182
       260.00000       100000.00       2.3443393       14.085049
       260.00000       300000.00       2.3441318       14.086441
       270.00000    0.0010000000       2.3510617       14.078575
       270.00000    0.0030000000       2.3511640       14.081034
       270.00000     0.010000000       2.3512174       14.083630
       270.00000     0.030000000       2.3512278       14.084239
       270.00000      0.10000000       2.3512300       14.084321
       270.00000      0.30000000       2.3512263       14.084330
       270.00000       1.0000000       2.3512263       14.084331
       270.00000       3.0000000       2.3512231       14.084336
       270.00000       10.000000       2.3512231       14.084340
       270.00000       30.000000       2.3512263       14.084372
       270.00000       100.00000       2.3512468       14.084411
       270.00000       300.00000       2.3512462       14.084581
       270.00000       1000.0000       2.3512469       14.085534
       270.00000       3000.0000       2.3512462       14.095114
       270.00000       10000.000       2.3512469       14.095665
       270.00000       30000.000       2.3465277       14.127322
       270.00000       100000.00       2.3447787       14.139100
       270.00000       300000.00       2.3442781       14.142472
       275.00000    0.0010000000       2.3510082       14.104177
       275.00000    0.0030000000       2.3511209       14.105942
       275.00000     0.010000000       2.3512066       14.108971
       275.00000     0.030000000       2.3512260       14.110039
       275.00000      0.10000000       2.3512291       14.110207
       275.00000      0.30000000       2.3512262       14.110223
       275.00000       1.0000000       2.3512263       14.110225
       275.00000       3.0000000       2.3512263       14.110229
       275.00000       10.000000       2.3512230       14.110234
       275.00000       30.000000       2.3512263       14.110266
       275.00000       100.00000       2.3512462       14.110305
       275.00000       300.00000       2.3512462       14.110475
       275.00000       1000.0000       2.3512462       14.111428
       275.00000       3000.0000       2.3512462       14.121008
       275.00000       10000.000       2.3512464       14.121558
       275.00000       30000.000       2.3477862       14.144814
       275.00000       100000.00       2.3451557       14.162551
       275.00000       300000.00       2.3444040       14.167632
       280.00000    0.0010000000       2.3509390       14.128956
       280.00000    0.0030000000       2.3510887       14.129865
       280.00000     0.010000000       2.3511927       14.132933
       280.00000     0.030000000       2.3512235       14.134593
       280.00000      0.10000000       2.3512292       14.134920
       280.00000      0.30000000       2.3512301       14.134949
       280.00000       1.0000000       2.3512269       14.134955
       280.00000       3.0000000       2.3512263       14.134958
       280.00000       10.000000       2.3512269       14.134962
       280.00000       30.000000       2.3512263       14.134995
       280.00000       100.00000       2.3512468       14.135034
       280.00000       300.00000       2.3512468       14.135204
       280.00000       1000.0000       2.3512468       14.136157
       280.00000       3000.0000       2.3512468       14.145738
       280.00000       10000.000       2.3512469       14.146289
       280.00000       30000.000       2.3492979       14.159405
       280.00000       100000.00       2.3456098       14.184306
       280.00000       300000.00       2.3445558       14.191445
       290.00000    0.0010000000       2.3507723       14.175022
       290.00000    0.0030000000       2.3509948       14.174627
       290.00000     0.010000000       2.3511283       14.176657
       290.00000     0.030000000       2.3512092       14.179342
       290.00000      0.10000000       2.3512275       14.180347
       290.00000      0.30000000       2.3512297       14.180465
       290.00000       1.0000000       2.3512301       14.180479
       290.00000       3.0000000       2.3512263       14.180485
       290.00000       10.000000       2.3512269       14.180489
       290.00000       30.000000       2.3512263       14.180522
       290.00000       100.00000       2.3512470       14.180559
       290.00000       300.00000       2.3512468       14.180731
       290.00000       1000.0000       2.3512470       14.181682
       290.00000       3000.0000       2.3512468       14.191264
       290.00000       10000.000       2.3512469       14.191815
       290.00000       30000.000       2.3512470       14.191808
       290.00000       100000.00       2.3470305       14.220334
       290.00000       300000.00       2.3450294       14.233935
       300.00000    0.0010000000       2.3510234       14.211509
       300.00000    0.0030000000       2.3510174       14.212145
       300.00000     0.010000000       2.3510689       14.213979
       300.00000     0.030000000       2.3511267       14.216931
       300.00000      0.10000000       2.3511865       14.219090
       300.00000      0.30000000       2.3511937       14.219480
       300.00000       1.0000000       2.3511939       14.219530
       300.00000       3.0000000       2.3511946       14.219537
       300.00000       10.000000       2.3511940       14.219542
       300.00000       30.000000       2.3511946       14.219575
       300.00000       100.00000       2.3511940       14.219615
       300.00000       300.00000       2.3511946       14.219785
       300.00000       1000.0000       2.3511939       14.220737
       300.00000       3000.0000       2.3511946       14.230314
       300.00000       10000.000       2.3511939       14.230864
       300.00000       30000.000       2.3511946       14.230858
       300.00000       100000.00       2.3494383       14.242717
       300.00000       300000.00       2.3457996       14.267498
       310.00000    0.0010000000       2.3510002       14.243019
       310.00000    0.0030000000       2.3510263       14.243381
       310.00000     0.010000000       2.3510499       14.244526
       310.00000     0.030000000       2.3510940       14.246911
       310.00000      0.10000000       2.3511699       14.250015
       310.00000      0.30000000       2.3511911       14.251036
       310.00000       1.0000000       2.3511943       14.251195
       310.00000       3.0000000       2.3511939       14.251212
       310.00000       10.000000       2.3511946       14.251218
       310.00000       30.000000       2.3511939       14.251251
       310.00000       100.00000       2.3511946       14.251291
       310.00000       300.00000       2.3511940       14.251461
       310.00000       1000.0000       2.3511946       14.252414
       310.00000       3000.0000       2.3511939       14.261990
       310.00000       10000.000       2.3511946       14.262541
       310.00000       30000.000       2.3511939       14.262534
       310.00000       100000.00       2.3511946       14.262453
       310.00000       300000.00       2.3471646       14.289892
       320.00000    0.0010000000       2.3509996       14.269092
       320.00000    0.0030000000       2.3510232       14.269301
       320.00000     0.010000000       2.3510182       14.270002
       320.00000     0.030000000       2.3510667       14.271669
       320.00000      0.10000000       2.3511290       14.274892
       320.00000      0.30000000       2.3511863       14.276885
       320.00000       1.0000000       2.3511937       14.277331
       320.00000       3.0000000       2.3511945       14.277378
       320.00000       10.000000       2.3511946       14.277388
       320.00000       30.000000       2.3511946       14.277421
       320.00000       100.00000       2.3511946       14.277461
       320.00000       300.00000       2.3511946       14.277631
       320.00000       1000.0000       2.3511946       14.278584
       320.00000       3000.0000       2.3511946       14.288160
       320.00000       10000.000       2.3511946       14.288710
       320.00000       30000.000       2.3511946       14.288704
       320.00000       100000.00       2.3511946       14.288623
       320.00000       300000.00       2.3493632       14.301001
       330.00000    0.0010000000       2.3509987       14.292135
       330.00000    0.0030000000       2.3510002       14.292261
       330.00000     0.010000000       2.3510279       14.292687
       330.00000     0.030000000       2.3510500       14.293783
       330.00000      0.10000000       2.3510994       14.296484
       330.00000      0.30000000       2.3511701       14.299295
       330.00000       1.0000000       2.3511923       14.300342
       330.00000       3.0000000       2.3511943       14.300470
       330.00000       10.000000       2.3511946       14.300488
       330.00000       30.000000       2.3511946       14.300522
       330.00000       100.00000       2.3511946       14.300563
       330.00000       300.00000       2.3511946       14.300733
       330.00000       1000.0000       2.3511946       14.301685
       330.00000       3000.0000       2.3511946       14.311262
       330.00000       10000.000       2.3511946       14.311812
       330.00000       30000.000       2.3511946       14.311806
       330.00000       100000.00       2.3511946       14.311725
       330.00000       300000.00       2.3511946       14.311525
       340.00000    0.0010000000       2.3509983       14.312921
       340.00000    0.0030000000       2.3509990       14.312998
       340.00000     0.010000000       2.3510241       14.313260
       340.00000     0.030000000       2.3510194       14.313970
       340.00000      0.10000000       2.3510768       14.315971
       340.00000      0.30000000       2.3511313       14.318992
       340.00000       1.0000000       2.3511885       14.320943
       340.00000       3.0000000       2.3511939       14.321266
       340.00000       10.000000       2.3511947       14.321310
       340.00000       30.000000       2.3511946       14.321346
       340.00000       100.00000       2.3511946       14.321387
       340.00000       300.00000       2.3511946       14.321557
       340.00000       1000.0000       2.3511946       14.322509
       340.00000       3000.0000       2.3511946       14.332086
       340.00000       10000.000       2.3511946       14.332636
       340.00000       30000.000       2.3511946       14.332630
       340.00000       100000.00       2.3511946       14.332549
       340.00000       300000.00       2.3511946       14.332349
       350.00000    0.0010000000       2.3509981       14.330584
       350.00000    0.0030000000       2.3509989       14.330633
       350.00000     0.010000000       2.3510017       14.330799
       350.00000     0.030000000       2.3510292       14.331256
       350.00000      0.10000000       2.3510565       14.332657
       350.00000      0.30000000       2.3511053       14.335340
       350.00000       1.0000000       2.3511604       14.338164
       350.00000       3.0000000       2.3511928       14.338888
       350.00000       10.000000       2.3511945       14.338993
       350.00000       30.000000       2.3511946       14.339034
       350.00000       100.00000       2.3511946       14.339076
       350.00000       300.00000       2.3511946       14.339246
       350.00000       1000.0000       2.3511946       14.340199
       350.00000       3000.0000       2.3511946       14.349775
       350.00000       10000.000       2.3511946       14.350325
       350.00000       30000.000       2.3511946       14.350319
       350.00000       100000.00       2.3511946       14.350238
       350.00000       300000.00       2.3511946       14.350038
       375.00000    0.0010000000       2.3509977       14.360525
       375.00000    0.0030000000       2.3509980       14.360541
       375.00000     0.010000000       2.3509990       14.360598
       375.00000     0.030000000       2.3510017       14.360759
       375.00000      0.10000000       2.3510307       14.361298
       375.00000      0.30000000       2.3510569       14.362645
       375.00000       1.0000000       2.3511153       14.365652
       375.00000       3.0000000       2.3511607       14.368159
       375.00000       10.000000       2.3511925       14.368889
       375.00000       30.000000       2.3511944       14.368999
       375.00000       100.00000       2.3511939       14.369048
       375.00000       300.00000       2.3511946       14.369216
       375.00000       1000.0000       2.3511939       14.370152
       375.00000       3000.0000       2.3511946       14.379537
       375.00000       10000.000       2.3511939       14.380118
       375.00000       30000.000       2.3511946       14.380306
       375.00000       100000.00       2.3511939       14.380232
       375.00000       300000.00       2.3511946       14.380028
       400.00000    0.0010000000       2.3509970       14.380638
       400.00000    0.0030000000       2.3509972       14.380644
       400.00000     0.010000000       2.3509975       14.380666
       400.00000     0.030000000       2.3509986       14.380729
       400.00000      0.10000000       2.3510220       14.380943
       400.00000      0.30000000       2.3510322       14.381527
       400.00000       1.0000000       2.3510644       14.383253
       400.00000       3.0000000       2.3511207       14.386183
       400.00000       10.000000       2.3511682       14.388568
       400.00000       30.000000       2.3511928       14.389064
       400.00000       100.00000       2.3511938       14.389156
       400.00000       300.00000       2.3511939       14.389294
       400.00000       1000.0000       2.3511939       14.390011
       400.00000       3000.0000       2.3511939       14.396892
       400.00000       10000.000       2.3511939       14.397878
       400.00000       30000.000       2.3511939       14.400595
       400.00000       100000.00       2.3511939       14.400617
       400.00000       300000.00       2.3511939       14.400356
       425.00000    0.0010000000       2.3509969       14.393534
       425.00000    0.0030000000       2.3509964       14.393536
       425.00000     0.010000000       2.3509972       14.393545
       425.00000     0.030000000       2.3509970       14.393572
       425.00000      0.10000000       2.3509992       14.393665
       425.00000      0.30000000       2.3510234       14.393924
       425.00000       1.0000000       2.3510244       14.394769
       425.00000       3.0000000       2.3510772       14.396711
       425.00000       10.000000       2.3511366       14.400024
       425.00000       30.000000       2.3511881       14.401680
       425.00000       100.00000       2.3511934       14.402016
       425.00000       300.00000       2.3511939       14.402146
       425.00000       1000.0000       2.3511939       14.402654
       425.00000       3000.0000       2.3511940       14.407190
       425.00000       10000.000       2.3511939       14.408573
       425.00000       30000.000       2.3511939       14.413649
       425.00000       100000.00       2.3511939       14.413767
       425.00000       300000.00       2.3511939       14.413446
       450.00000    0.0010000000       2.3509967       14.401043
       450.00000    0.0030000000       2.3509970       14.401042
       450.00000     0.010000000       2.3509972       14.401046
       450.00000     0.030000000       2.3509974       14.401059
       450.00000      0.10000000       2.3509981       14.401102
       450.00000      0.30000000       2.3510002       14.401225
       450.00000       1.0000000       2.3510265       14.401639
       450.00000       3.0000000       2.3510485       14.402714
       450.00000       10.000000       2.3510970       14.405388
       450.00000       30.000000       2.3511685       14.408268
       450.00000       100.00000       2.3511908       14.409394
       450.00000       300.00000       2.3511931       14.409598
       450.00000       1000.0000       2.3511933       14.409915
       450.00000       3000.0000       2.3511933       14.412244
       450.00000       10000.000       2.3511933       14.414015
       450.00000       30000.000       2.3511933       14.421303
       450.00000       100000.00       2.3511933       14.421513
       450.00000       300000.00       2.3511933       14.421134
       475.00000    0.0010000000       2.3509913       14.405883
       475.00000    0.0030000000       2.3509964       14.405856
       475.00000     0.010000000       2.3509963       14.405855
       475.00000     0.030000000       2.3509972       14.405860
       475.00000      0.10000000       2.3509969       14.405883
       475.00000      0.30000000       2.3509986       14.405944
       475.00000       1.0000000       2.3510220       14.406157
       475.00000       3.0000000       2.3510313       14.406736
       475.00000       10.000000       2.3510640       14.408448
       475.00000       30.000000       2.3511201       14.411380
       475.00000       100.00000       2.3511680       14.413798
       475.00000       300.00000       2.3511922       14.414328
       475.00000       1000.0000       2.3511939       14.414584
       475.00000       3000.0000       2.3511933       14.415795
       475.00000       10000.000       2.3511940       14.417560
       475.00000       30000.000       2.3511933       14.424955
       475.00000       100000.00       2.3511940       14.426880
       475.00000       300000.00       2.3511933       14.426471
       500.00000    0.0010000000       2.3509242       14.411941
       500.00000    0.0030000000       2.3509890       14.411606
       500.00000     0.010000000       2.3509964       14.411565
       500.00000     0.030000000       2.3509972       14.411564
       500.00000      0.10000000       2.3509974       14.411575
       500.00000      0.30000000       2.3509979       14.411609
       500.00000       1.0000000       2.3509998       14.411724
       500.00000       3.0000000       2.3510252       14.412042
       500.00000       10.000000       2.3510457       14.413065
       500.00000       30.000000       2.3510867       14.415291
       500.00000       100.00000       2.3511453       14.418554
       500.00000       300.00000       2.3511900       14.419846
       500.00000       1000.0000       2.3511936       14.420164
       500.00000       3000.0000       2.3511939       14.420512
       500.00000       10000.000       2.3511939       14.422195
       500.00000       30000.000       2.3511940       14.429310
       500.00000       100000.00       2.3511939       14.433272
       500.00000       300000.00       2.3511939       14.432747
       575.00000    0.0010000000       2.3498158       14.447246
       575.00000    0.0030000000       2.3500393       14.446403
       575.00000     0.010000000       2.3506022       14.444202
       575.00000     0.030000000       2.3509321       14.442884
       575.00000      0.10000000       2.3509910       14.442613
       575.00000      0.30000000       2.3509960       14.442592
       575.00000       1.0000000       2.3509976       14.442613
       575.00000       3.0000000       2.3509981       14.442682
       575.00000       10.000000       2.3510225       14.442914
       575.00000       30.000000       2.3510165       14.443546
       575.00000       100.00000       2.3510672       14.445381
       575.00000       300.00000       2.3511244       14.448381
       575.00000       1000.0000       2.3511861       14.450671
       575.00000       3000.0000       2.3511930       14.451238
       575.00000       10000.000       2.3511939       14.451975
       575.00000       30000.000       2.3511940       14.454645
       575.00000       100000.00       2.3511940       14.466367
       575.00000       300000.00       2.3511940       14.475255
       650.00000    0.0010000000       2.3497841       14.477038
       650.00000    0.0030000000       2.3497815       14.477031
       650.00000     0.010000000       2.3497977       14.476960
       650.00000     0.030000000       2.3499357       14.476498
       650.00000      0.10000000       2.3504440       14.474824
       650.00000      0.30000000       2.3508797       14.473349
       650.00000       1.0000000       2.3509857       14.472948
       650.00000       3.0000000       2.3509962       14.472923
       650.00000       10.000000       2.3509985       14.472987
       650.00000       30.000000       2.3510216       14.473181
       650.00000       100.00000       2.3510159       14.473820
       650.00000       300.00000       2.3510619       14.475383
       650.00000       1000.0000       2.3511225       14.478598
       650.00000       3000.0000       2.3511670       14.480894
       650.00000       10000.000       2.3511923       14.481746
       650.00000       30000.000       2.3511932       14.482891
       650.00000       100000.00       2.3511933       14.491436
       650.00000       300000.00       2.3511933       14.543769
       725.00000    0.0010000000       2.3498547       14.529705
       725.00000    0.0030000000       2.3498545       14.529706
       725.00000     0.010000000       2.3498547       14.529705
       725.00000     0.030000000       2.3498114       14.529697
       725.00000      0.10000000       2.3498182       14.529610
       725.00000      0.30000000       2.3499892       14.529088
       725.00000       1.0000000       2.3505319       14.527542
       725.00000       3.0000000       2.3509147       14.526473
       725.00000       10.000000       2.3509901       14.526252
       725.00000       30.000000       2.3509980       14.526300
       725.00000       100.00000       2.3510228       14.526544
       725.00000       300.00000       2.3510174       14.527210
       725.00000       1000.0000       2.3510694       14.529137
       725.00000       3000.0000       2.3511268       14.532210
       725.00000       10000.000       2.3511868       14.534538
       725.00000       30000.000       2.3511931       14.535475
       725.00000       100000.00       2.3511939       14.539704
       725.00000       300000.00       2.3511940       14.575678
       800.00000    0.0010000000       2.3498546       14.616452
       800.00000    0.0030000000       2.3498546       14.616452
       800.00000     0.010000000       2.3498546       14.616452
       800.00000     0.030000000       2.3498547       14.616451
       800.00000      0.10000000       2.3498555       14.616449
       800.00000      0.30000000       2.3498625       14.616429
       800.00000       1.0000000       2.3499428       14.616224
       800.00000       3.0000000       2.3502458       14.615388
       800.00000       10.000000       2.3507899       14.614054
       800.00000       30.000000       2.3509744       14.613625
       800.00000       100.00000       2.3509980       14.613665
       800.00000       300.00000       2.3510246       14.613966
       800.00000       1000.0000       2.3510443       14.614959
       800.00000       3000.0000       2.3510841       14.617159
       800.00000       10000.000       2.3511433       14.620599
       800.00000       30000.000       2.3511897       14.622326
       800.00000       100000.00       2.3511939       14.624277
       800.00000       300000.00       2.3511947       14.631701
       900.00000    0.0010000000       2.3498558       14.735871
       900.00000    0.0030000000       2.3498557       14.735871
       900.00000     0.010000000       2.3498556       14.735871
       900.00000     0.030000000       2.3498555       14.735870
       900.00000      0.10000000       2.3498552       14.735872
       900.00000      0.30000000       2.3498556       14.735870
       900.00000       1.0000000       2.3498573       14.735868
       900.00000       3.0000000       2.3498773       14.735829
       900.00000       10.000000       2.3500406       14.735527
       900.00000       30.000000       2.3505276       14.734674
       900.00000       100.00000       2.3509620       14.733883
       900.00000       300.00000       2.3510095       14.733836
       900.00000       1000.0000       2.3510323       14.734250
       900.00000       3000.0000       2.3510515       14.735379
       900.00000       10000.000       2.3510997       14.738202
       900.00000       30000.000       2.3511720       14.741314
       900.00000       100000.00       2.3511969       14.743324
       900.00000       300000.00       2.3512045       14.746502
       1000.0000    0.0010000000       2.3498575       14.885025
       1000.0000    0.0030000000       2.3498585       14.885035
       1000.0000     0.010000000       2.3498579       14.885049
       1000.0000     0.030000000       2.3498572       14.885057
       1000.0000      0.10000000       2.3498563       14.885063
       1000.0000      0.30000000       2.3498558       14.885066
       1000.0000       1.0000000       2.3498554       14.885069
       1000.0000       3.0000000       2.3498562       14.885068
       1000.0000       10.000000       2.3498697       14.885053
       1000.0000       30.000000       2.3499635       14.884940
       1000.0000       100.00000       2.3503796       14.884413
       1000.0000       300.00000       2.3508761       14.883799
       1000.0000       1000.0000       2.3510614       14.883764
       1000.0000       3000.0000       2.3510891       14.884323
       1000.0000       10000.000       2.3510950       14.886083
       1000.0000       30000.000       2.3511418       14.889201
       1000.0000       100000.00       2.3512033       14.892292
       1000.0000       300000.00       2.3512102       14.894582
       1100.0000    0.0010000000       2.3499154       15.053949
       1100.0000    0.0030000000       2.3498740       15.054014
       1100.0000     0.010000000       2.3498623       15.054039
       1100.0000     0.030000000       2.3498634       15.054045
       1100.0000      0.10000000       2.3498612       15.054048
       1100.0000      0.30000000       2.3498628       15.054049
       1100.0000       1.0000000       2.3498627       15.054049
       1100.0000       3.0000000       2.3498634       15.054051
       1100.0000       10.000000       2.3498634       15.054054
       1100.0000       30.000000       2.3498747       15.054053
       1100.0000       100.00000       2.3499681       15.053993
       1100.0000       300.00000       2.3503151       15.053715
       1100.0000       1000.0000       2.3508817       15.053324
       1100.0000       3000.0000       2.3510724       15.053485
       1100.0000       10000.000       2.3511362       15.054559
       1100.0000       30000.000       2.3511788       15.056974
       1100.0000       100000.00       2.3512038       15.060747
       1100.0000       300000.00       2.3512196       15.063208
       1200.0000    0.0010000000       2.3529955       15.236086
       1200.0000    0.0030000000       2.3517129       15.239158
       1200.0000     0.010000000       2.3504145       15.241627
       1200.0000     0.030000000       2.3500391       15.242477
       1200.0000      0.10000000       2.3499070       15.242796
       1200.0000      0.30000000       2.3498736       15.242887
       1200.0000       1.0000000       2.3498663       15.242920
       1200.0000       3.0000000       2.3498656       15.242932
       1200.0000       10.000000       2.3498633       15.242936
       1200.0000       30.000000       2.3498645       15.242938
       1200.0000       100.00000       2.3498805       15.242939
       1200.0000       300.00000       2.3499679       15.242916
       1200.0000       1000.0000       2.3503986       15.242785
       1200.0000       3000.0000       2.3509043       15.242691
       1200.0000       10000.000       2.3510911       15.243382
       1200.0000       30000.000       2.3511368       15.245106
       1200.0000       100000.00       2.3512160       15.248760
       1200.0000       300000.00       2.3512752       15.251859
       1300.0000    0.0010000000       2.3527003       15.431308
       1300.0000    0.0030000000       2.3532649       15.431263
       1300.0000     0.010000000       2.3536104       15.431231
       1300.0000     0.030000000       2.3537898       15.431211
       1300.0000      0.10000000       2.3516856       15.436733
       1300.0000      0.30000000       2.3507741       15.439048
       1300.0000       1.0000000       2.3501323       15.440850
       1300.0000       3.0000000       2.3499343       15.441429
       1300.0000       10.000000       2.3498862       15.441640
       1300.0000       30.000000       2.3498718       15.441702
       1300.0000       100.00000       2.3498707       15.441729
       1300.0000       300.00000       2.3498876       15.441754
       1300.0000       1000.0000       2.3500492       15.441818
       1300.0000       3000.0000       2.3505152       15.441831
       1300.0000       10000.000       2.3510028       15.442512
       1300.0000       30000.000       2.3511308       15.443764
       1300.0000       100000.00       2.3511937       15.446900
       1300.0000       300000.00       2.3512487       15.450508
       1400.0000    0.0010000000       2.3485611       15.659679
       1400.0000    0.0030000000       2.3508183       15.659726
       1400.0000     0.010000000       2.3522624       15.659717
       1400.0000     0.030000000       2.3530156       15.659694
       1400.0000      0.10000000       2.3534821       15.659679
       1400.0000      0.30000000       2.3537109       15.659668
       1400.0000       1.0000000       2.3530384       15.659660
       1400.0000       3.0000000       2.3514587       15.665020
       1400.0000       10.000000       2.3507658       15.667448
       1400.0000       30.000000       2.3501625       15.669263
       1400.0000       100.00000       2.3499570       15.669980
       1400.0000       300.00000       2.3498977       15.670211
       1400.0000       1000.0000       2.3499226       15.670367
       1400.0000       3000.0000       2.3501737       15.670707
       1400.0000       10000.000       2.3507523       15.671585
       1400.0000       30000.000       2.3510620       15.672763
       1400.0000       100000.00       2.3511698       15.675377
       1400.0000       300000.00       2.3512320       15.679146
       1500.0000    0.0010000000       2.3349181       15.907253
       1500.0000    0.0030000000       2.3428668       15.907660
       1500.0000     0.010000000       2.3478429       15.907867
       1500.0000     0.030000000       2.3504211       15.907934
       1500.0000      0.10000000       2.3520517       15.907948
       1500.0000      0.30000000       2.3528994       15.907948
       1500.0000       1.0000000       2.3534148       15.907945
       1500.0000       3.0000000       2.3536905       15.907939
       1500.0000       10.000000       2.3530147       15.907936
       1500.0000       30.000000       2.3520845       15.910292
       1500.0000       100.00000       2.3510643       15.914603
       1500.0000       300.00000       2.3505184       15.916572
       1500.0000       1000.0000       2.3500820       15.918103
       1500.0000       3000.0000       2.3500492       15.918870
       1500.0000       10000.000       2.3504457       15.920227
       1500.0000       30000.000       2.3509277       15.921987
       1500.0000       100000.00       2.3511415       15.924424
       1500.0000       300000.00       2.3512132       15.928087
       1600.0000    0.0010000000       2.2966746       16.113562
       1600.0000    0.0030000000       2.3204033       16.114973
       1600.0000     0.010000000       2.3353679       16.115807
       1600.0000     0.030000000       2.3431574       16.116193
       1600.0000      0.10000000       2.3480263       16.116390
       1600.0000      0.30000000       2.3505552       16.116459
       1600.0000       1.0000000       2.3521459       16.116489
       1600.0000       3.0000000       2.3529487       16.116505
       1600.0000       10.000000       2.3534476       16.116508
       1600.0000       30.000000       2.3537117       16.116511
       1600.0000       100.00000       2.3528122       16.116514
       1600.0000       300.00000       2.3524542       16.116793
       1600.0000       1000.0000       2.3511922       16.122612
       1600.0000       3000.0000       2.3508223       16.124678
       1600.0000       10000.000       2.3503993       16.128111
       1600.0000       30000.000       2.3507628       16.131307
       1600.0000       100000.00       2.3510889       16.134475
       1600.0000       300000.00       2.3511978       16.138025
       1700.0000    0.0010000000       2.2061247       16.316041
       1700.0000    0.0030000000       2.2658046       16.320145
       1700.0000     0.010000000       2.3046425       16.322566
       1700.0000     0.030000000       2.3251293       16.323756
       1700.0000      0.10000000       2.3380115       16.324453
       1700.0000      0.30000000       2.3447149       16.324767
       1700.0000       1.0000000       2.3489203       16.324928
       1700.0000       3.0000000       2.3510810       16.324995
       1700.0000       10.000000       2.3524283       16.325028
       1700.0000       30.000000       2.3531248       16.325049
       1700.0000       100.00000       2.3535566       16.325059
       1700.0000       300.00000       2.3532472       16.325071
       1700.0000       1000.0000       2.3525982       16.325093
       1700.0000       3000.0000       2.3523896       16.325589
       1700.0000       10000.000       2.3512676       16.332604
       1700.0000       30000.000       2.3511137       16.338291
       1700.0000       100000.00       2.3511296       16.344617
       1700.0000       300000.00       2.3512210       16.348694
       1800.0000    0.0010000000       2.0307236       16.499270
       1800.0000    0.0030000000       2.1526814       16.510547
       1800.0000     0.010000000       2.2383341       16.516911
       1800.0000     0.030000000       2.2854912       16.519985
       1800.0000      0.10000000       2.3158190       16.521808
       1800.0000      0.30000000       2.3317190       16.522693
       1800.0000       1.0000000       2.3417209       16.523198
       1800.0000       3.0000000       2.3468976       16.523425
       1800.0000       10.000000       2.3501362       16.523548
       1800.0000       30.000000       2.3517999       16.523604
       1800.0000       100.00000       2.3528336       16.523637
       1800.0000       300.00000       2.3533490       16.523660
       1800.0000       1000.0000       2.3536292       16.523691
       1800.0000       3000.0000       2.3527420       16.523784
       1800.0000       10000.000       2.3525309       16.524414
       1800.0000       30000.000       2.3520537       16.531132
       1800.0000       100000.00       2.3518751       16.542300
       1800.0000       300000.00       2.3515581       16.549215
       1900.0000    0.0010000000       1.7731420       16.650253
       1900.0000    0.0030000000       1.9602047       16.680126
       1900.0000     0.010000000       2.1149555       16.696129
       1900.0000     0.030000000       2.2083628       16.703502
       1900.0000      0.10000000       2.2714563       16.707765
       1900.0000      0.30000000       2.3054397       16.709851
       1900.0000       1.0000000       2.3270596       16.711086
       1900.0000       3.0000000       2.3383320       16.711674
       1900.0000       10.000000       2.3454113       16.712008
       1900.0000       30.000000       2.3490486       16.712163
       1900.0000       100.00000       2.3513341       16.712249
       1900.0000       300.00000       2.3525041       16.712295
       1900.0000       1000.0000       2.3532092       16.712337
       1900.0000       3000.0000       2.3535883       16.712420
       1900.0000       10000.000       2.3528010       16.712888
       1900.0000       30000.000       2.3526883       16.715445
       1900.0000       100000.00       2.3529609       16.725280
       1900.0000       300000.00       2.3522621       16.738868
       2000.0000    0.0010000000       1.5204911       16.741078
       2000.0000    0.0030000000       1.7110763       16.816371
       2000.0000     0.010000000       1.9238573       16.854657
       2000.0000     0.030000000       2.0775500       16.871652
       2000.0000      0.10000000       2.1919924       16.881093
       2000.0000      0.30000000       2.2570808       16.885592
       2000.0000       1.0000000       2.2996686       16.888240
       2000.0000       3.0000000       2.3222423       16.889536
       2000.0000       10.000000       2.3364578       16.890293
       2000.0000       30.000000       2.3438560       16.890652
       2000.0000       100.00000       2.3484594       16.890859
       2000.0000       300.00000       2.3508337       16.890961
       2000.0000       1000.0000       2.3523055       16.891033
       2000.0000       3000.0000       2.3530631       16.891113
       2000.0000       10000.000       2.3535567       16.891475
       2000.0000       30000.000       2.3528927       16.893548
       2000.0000       100000.00       2.3530323       16.902965
       2000.0000       300000.00       2.3534819       16.914664
       2150.0000    0.0010000000       1.3324020       16.405603
       2150.0000    0.0030000000       1.4150826       16.872001
       2150.0000     0.010000000       1.5847708       17.033803
       2150.0000     0.030000000       1.7838533       17.088612
       2150.0000      0.10000000       1.9847976       17.117284
       2150.0000      0.30000000       2.1210721       17.130304
       2150.0000       1.0000000       2.2191145       17.137692
       2150.0000       3.0000000       2.2737885       17.141260
       2150.0000       10.000000       2.3092256       17.143368
       2150.0000       30.000000       2.3278867       17.144399
       2150.0000       100.00000       2.3396369       17.144998
       2150.0000       300.00000       2.3457063       17.145296
       2150.0000       1000.0000       2.3494953       17.145475
       2150.0000       3000.0000       2.3514352       17.145600
       2150.0000       10000.000       2.3526426       17.145889
       2150.0000       30000.000       2.3533106       17.147369
       2150.0000       100000.00       2.3532839       17.156432
       2150.0000       300000.00       2.3533955       17.174478
       2300.0000    0.0010000000       1.2896908       14.115012
       2300.0000    0.0030000000       1.3105687       16.115840
       2300.0000     0.010000000       1.3728395       16.965508
       2300.0000     0.030000000       1.4954622       17.215752
       2300.0000      0.10000000       1.6995354       17.305056
       2300.0000      0.30000000       1.8963910       17.339481
       2300.0000       1.0000000       2.0702150       17.358220
       2300.0000       3.0000000       2.1791669       17.366962
       2300.0000       10.000000       2.2542417       17.372029
       2300.0000       30.000000       2.2951395       17.374503
       2300.0000       100.00000       2.3213244       17.375972
       2300.0000       300.00000       2.3350214       17.376691
       2300.0000       1000.0000       2.3436046       17.377120
       2300.0000       3000.0000       2.3480258       17.377359
       2300.0000       10000.000       2.3507786       17.377658
       2300.0000       30000.000       2.3521934       17.378768
       2300.0000       100000.00       2.3532403       17.386568
       2300.0000       300000.00       2.3537497       17.409226
       2450.0000    0.0010000000       1.2810273       9.0879818
       2450.0000    0.0030000000       1.2863042       13.242230
       2450.0000     0.010000000       1.3036331       15.989508
       2450.0000     0.030000000       1.3475831       17.019944
       2450.0000      0.10000000       1.4601902       17.405950
       2450.0000      0.30000000       1.6334031       17.514522
       2450.0000       1.0000000       1.8523864       17.559796
       2450.0000       3.0000000       2.0239188       17.579539
       2450.0000       10.000000       2.1575777       17.590671
       2450.0000       30.000000       2.2355900       17.596006
       2450.0000       100.00000       2.2873643       17.599151
       2450.0000       300.00000       2.3149726       17.600696
       2450.0000       1000.0000       2.3324576       17.601619
       2450.0000       3000.0000       2.3415552       17.602092
       2450.0000       10000.000       2.3472019       17.602497
       2450.0000       30000.000       2.3501201       17.603412
       2450.0000       100000.00       2.3520068       17.609832
       2450.0000       300000.00       2.3532936       17.634510
       2600.0000    0.0010000000       1.2786428       4.6354652
       2600.0000    0.0030000000       1.2803161       8.3986446
       2600.0000     0.010000000       1.2855054       13.097656
       2600.0000     0.030000000       1.2992802       15.862709
       2600.0000      0.10000000       1.3422297       17.163558
       2600.0000      0.30000000       1.4359278       17.572135
       2600.0000       1.0000000       1.6171225       17.713112
       2600.0000       3.0000000       1.8175463       17.757813
       2600.0000       10.000000       2.0114270       17.780631
       2600.0000       30.000000       2.1395451       17.791255
       2600.0000       100.00000       2.2304213       17.797421
       2600.0000       300.00000       2.2807404       17.800432
       2600.0000       1000.0000       2.3132119       17.802226
       2600.0000       3000.0000       2.3302697       17.803126
       2600.0000       10000.000       2.3409854       17.803755
       2600.0000       30000.000       2.3464960       17.804617
       2600.0000       100000.00       2.3499634       17.809900
       2600.0000       300000.00       2.3519887       17.834481
       2800.0000    0.0010000000       1.2776308       2.2291754
       2800.0000    0.0030000000       1.2781201       3.7415400
       2800.0000     0.010000000       1.2794187       7.3072382
       2800.0000     0.030000000       1.2827701       11.762194
       2800.0000      0.10000000       1.2936996       15.476840
       2800.0000      0.30000000       1.3221719       17.085058
       2800.0000       1.0000000       1.4024615       17.734271
       2800.0000       3.0000000       1.5465699       17.922521
       2800.0000       10.000000       1.7610807       17.989018
       2800.0000       30.000000       1.9502255       18.013880
       2800.0000       100.00000       2.1081757       18.027560
       2800.0000       300.00000       2.2040247       18.034108
       2800.0000       1000.0000       2.2689707       18.037970
       2800.0000       3000.0000       2.3040324       18.039879
       2800.0000       10000.000       2.3263399       18.041083
       2800.0000       30000.000       2.3379672       18.042077
       2800.0000       100000.00       2.3452220       18.046319
       2800.0000       300000.00       2.3490753       18.068959
       3000.0000    0.0010000000       1.2768825       1.6043082
       3000.0000    0.0030000000       1.2772833       2.1037100
       3000.0000     0.010000000       1.2778507       3.6038578
       3000.0000     0.030000000       1.2788850       6.6385864
       3000.0000      0.10000000       1.2820304       11.494652
       3000.0000      0.30000000       1.2904955       15.167002
       3000.0000       1.0000000       1.3177251       17.189584
       3000.0000       3.0000000       1.3824641       17.881259
       3000.0000       10.000000       1.5288640       18.131490
       3000.0000       30.000000       1.7210617       18.201947
       3000.0000       100.00000       1.9326904       18.231581
       3000.0000       300.00000       2.0840438       18.244591
       3000.0000       1000.0000       2.1961161       18.252091
       3000.0000       3000.0000       2.2597039       18.255754
       3000.0000       10000.000       2.3012353       18.257972
       3000.0000       30000.000       2.3232022       18.259360
       3000.0000       100000.00       2.3370067       18.263048
       3000.0000       300000.00       2.3441868       18.283119
       3250.0000    0.0010000000       1.2754532       1.4275883
       3250.0000    0.0030000000       1.2761564       1.5662779
       3250.0000     0.010000000       1.2767565       2.0203130
       3250.0000     0.030000000       1.2773243       3.1617873
       3250.0000      0.10000000       1.2783510       6.0864902
       3250.0000      0.30000000       1.2806050       10.409835
       3250.0000       1.0000000       1.2878328       14.837139
       3250.0000       3.0000000       1.3071471       17.075863
       3250.0000       10.000000       1.3650729       18.055803
       3250.0000       30.000000       1.4814078       18.355752
       3250.0000       100.00000       1.6812388       18.459077
       3250.0000       300.00000       1.8796474       18.491127
       3250.0000       1000.0000       2.0581259       18.506981
       3250.0000       3000.0000       2.1711325       18.514390
       3250.0000       10000.000       2.2494609       18.518756
       3250.0000       30000.000       2.2922569       18.521098
       3250.0000       100000.00       2.3196537       18.524684
       3250.0000       300000.00       2.3339519       18.541923
       3500.0000    0.0010000000       1.2731854       1.4494465
       3500.0000    0.0030000000       1.2739778       1.5006135
       3500.0000     0.010000000       1.2750619       1.6596303
       3500.0000     0.030000000       1.2759748       2.0667673
       3500.0000      0.10000000       1.2768531       3.3005109
       3500.0000      0.30000000       1.2778804       5.9276917
       3500.0000       1.0000000       1.2803186       10.626669
       3500.0000       3.0000000       1.2864825       14.745904
       3500.0000       10.000000       1.3065056       17.307011
       3500.0000       30.000000       1.3562837       18.249453
       3500.0000       100.00000       1.4790721       18.606255
       3500.0000       300.00000       1.6589796       18.707339
       3500.0000       1000.0000       1.8768857       18.744297
       3500.0000       3000.0000       2.0426800       18.758539
       3500.0000       10000.000       2.1697360       18.766447
       3500.0000       30000.000       2.2431893       18.770419
       3500.0000       100000.00       2.2916354       18.774542
       3500.0000       300000.00       2.3173628       18.789862
       3750.0000    0.0010000000       1.2725158       1.7049567
       3750.0000    0.0030000000       1.2726684       1.7251575
       3750.0000     0.010000000       1.2730895       1.7925651
       3750.0000     0.030000000       1.2738521       1.9677055
       3750.0000      0.10000000       1.2750103       2.4954028
       3750.0000      0.30000000       1.2761481       3.7369436
       3750.0000       1.0000000       1.2776222       6.7928343
       3750.0000       3.0000000       1.2801520       11.143715
       3750.0000       10.000000       1.2876733       15.454905
       3750.0000       30.000000       1.3074381       17.611349
       3750.0000       100.00000       1.3664877       18.561542
       3750.0000       300.00000       1.4844295       18.856151
       3750.0000       1000.0000       1.6853597       18.958465
       3750.0000       3000.0000       1.8834604       18.988782
       3750.0000       10000.000       2.0608395       19.002786
       3750.0000       30000.000       2.1728650       19.009269
       3750.0000       100000.00       2.2503539       19.014587
       3750.0000       300000.00       2.2926137       19.028917
       4000.0000    0.0010000000       1.2724089       2.5691627
       4000.0000    0.0030000000       1.2724532       2.5766432
       4000.0000     0.010000000       1.2725306       2.6026193
       4000.0000     0.030000000       1.2727055       2.6751833
       4000.0000      0.10000000       1.2731880       2.9131461
       4000.0000      0.30000000       1.2740627       3.5068042
       4000.0000       1.0000000       1.2754811       5.1191422
       4000.0000       3.0000000       1.2772465       8.1177455
       4000.0000       10.000000       1.2808474       12.726320
       4000.0000       30.000000       1.2893411       16.208920
       4000.0000       100.00000       1.3161448       18.173422
       4000.0000       300.00000       1.3799808       18.867441
       4000.0000       1000.0000       1.5250298       19.127168
       4000.0000       3000.0000       1.7165997       19.200457
       4000.0000       10000.000       1.9287721       19.227410
       4000.0000       30000.000       2.0811099       19.237876
       4000.0000       100000.00       2.1940762       19.245075
       4000.0000       300000.00       2.2581704       19.259181
