T(K)  p(mbar)  mu(amu)  mean cp(kJ/kg/K)
       75.000000    0.0010000000       2.3799675       12.494451
       75.000000    0.0030000000       2.3799674       12.494451
       75.000000     0.010000000       2.3799674       12.494451
       75.000000     0.030000000       2.3799674       12.494451
       75.000000      0.10000000       2.3799674       12.494451
       75.000000      0.30000000       2.3799674       12.494451
       75.000000       1.0000000       2.3799674       12.494451
       75.000000       3.0000000       2.3799674       12.494451
       75.000000       10.000000       2.3799674       12.494451
       75.000000       30.000000       2.3799674       12.494451
       75.000000       100.00000       2.3799674       12.494451
       75.000000       300.00000       2.3799674       12.494451
       75.000000       1000.0000       2.3799674       12.494451
       75.000000       3000.0000       2.3517311       12.670501
       75.000000       10000.000       2.3190030       12.882024
       100.00000    0.0010000000       2.3991293       12.030223
       100.00000    0.0030000000       2.3872410       12.030223
       100.00000     0.010000000       2.3830799       12.030223
       100.00000     0.030000000       2.3818911       12.030223
       100.00000      0.10000000       2.3814750       12.030223
       100.00000      0.30000000       2.3813561       12.030223
       100.00000       1.0000000       2.3813145       12.030223
       100.00000       3.0000000       2.3813026       12.030223
       100.00000       10.000000       2.3812984       12.030223
       100.00000       30.000000       2.3812973       12.030223
       100.00000       100.00000       2.3812968       12.030223
       100.00000       300.00000       2.3812967       12.030223
       100.00000       1000.0000       2.3812967       12.030223
       100.00000       3000.0000       2.3812967       12.030223
       100.00000       10000.000       2.3812967       12.030223
       100.00000       30000.000       2.3812967       12.030223
       110.00000    0.0010000000       2.4047836       11.972653
       110.00000    0.0030000000       2.4047835       11.972653
       110.00000     0.010000000       2.4047835       11.972653
       110.00000     0.030000000       2.3978066       11.972653
       110.00000      0.10000000       2.3862497       11.972653
       110.00000      0.30000000       2.3829477       11.972653
       110.00000       1.0000000       2.3817920       11.972653
       110.00000       3.0000000       2.3814618       11.972653
       110.00000       10.000000       2.3813462       11.972653
       110.00000       30.000000       2.3813132       11.972653
       110.00000       100.00000       2.3813016       11.972653
       110.00000       300.00000       2.3812983       11.972653
       110.00000       1000.0000       2.3812972       11.972653
       110.00000       3000.0000       2.3812968       11.972653
       110.00000       10000.000       2.3812967       11.972653
       110.00000       30000.000       2.3812967       11.972653
       110.00000       100000.00       2.3812967       11.972653
       120.00000    0.0010000000       2.4047944       11.974568
       120.00000    0.0030000000       2.4047871       11.974568
       120.00000     0.010000000       2.4047846       11.974568
       120.00000     0.030000000       2.4047838       11.974568
       120.00000      0.10000000       2.4047836       11.974568
       120.00000      0.30000000       2.4047835       11.974568
       120.00000       1.0000000       2.3892016       11.974568
       120.00000       3.0000000       2.3839316       11.974568
       120.00000       10.000000       2.3820872       11.974568
       120.00000       30.000000       2.3815602       11.974568
       120.00000       100.00000       2.3813757       11.974568
       120.00000       300.00000       2.3813230       11.974568
       120.00000       1000.0000       2.3813046       11.974568
       120.00000       3000.0000       2.3812993       11.974568
       120.00000       10000.000       2.3812975       11.974568
       120.00000       30000.000       2.3812969       11.974568
       120.00000       100000.00       2.3812967       11.974568
       130.00000    0.0010000000       2.4051696       12.026805
       130.00000    0.0030000000       2.4049122       12.026812
       130.00000     0.010000000       2.4048221       12.026814
       130.00000     0.030000000       2.4047963       12.026815
       130.00000      0.10000000       2.4047873       12.026815
       130.00000      0.30000000       2.4047847       12.026815
       130.00000       1.0000000       2.4047838       12.026815
       130.00000       3.0000000       2.4047836       12.026815
       130.00000       10.000000       2.3895350       12.026815
       130.00000       30.000000       2.3840428       12.026815
       130.00000       100.00000       2.3821205       12.026815
       130.00000       300.00000       2.3815713       12.026815
       130.00000       1000.0000       2.3813790       12.026815
       130.00000       3000.0000       2.3813241       12.026815
       130.00000       10000.000       2.3813049       12.026815
       130.00000       30000.000       2.3812994       12.026815
       130.00000       100000.00       2.3812975       12.026815
       140.00000    0.0010000000       2.4129571       12.119936
       140.00000    0.0030000000       2.4075080       12.120140
       140.00000     0.010000000       2.4056008       12.120212
       140.00000     0.030000000       2.4050559       12.120232
       140.00000      0.10000000       2.4048652       12.120239
       140.00000      0.30000000       2.4048107       12.120241
       140.00000       1.0000000       2.4047916       12.120242
       140.00000       3.0000000       2.4047862       12.120242
       140.00000       10.000000       2.4047843       12.120242
       140.00000       30.000000       2.4017727       12.120242
       140.00000       100.00000       2.3874397       12.120242
       140.00000       300.00000       2.3833443       12.120242
       140.00000       1000.0000       2.3819110       12.120242
       140.00000       3000.0000       2.3815014       12.120242
       140.00000       10000.000       2.3813581       12.120242
       140.00000       30000.000       2.3813171       12.120242
       140.00000       100000.00       2.3813028       12.120242
       150.00000    0.0010000000       2.4144961       12.239879
       150.00000    0.0030000000       2.4138076       12.243750
       150.00000     0.010000000       2.4135806       12.245110
       150.00000     0.030000000       2.4086243       12.245502
       150.00000      0.10000000       2.4059357       12.245639
       150.00000      0.30000000       2.4051675       12.245678
       150.00000       1.0000000       2.4048987       12.245692
       150.00000       3.0000000       2.4048219       12.245696
       150.00000       10.000000       2.4047950       12.245697
       150.00000       30.000000       2.4047873       12.245697
       150.00000       100.00000       2.4047846       12.245697
       150.00000       300.00000       2.3929769       12.245698
       150.00000       1000.0000       2.3848008       12.245698
       150.00000       3000.0000       2.3824647       12.245698
       150.00000       10000.000       2.3816471       12.245698
       150.00000       30000.000       2.3814135       12.245698
       150.00000       100000.00       2.3813317       12.245698
       160.00000    0.0010000000       2.4266264       12.316886
       160.00000    0.0030000000       2.4180529       12.368353
       160.00000     0.010000000       2.4150594       12.386492
       160.00000     0.030000000       2.4141451       12.391660
       160.00000      0.10000000       2.4137938       12.393403
       160.00000      0.30000000       2.4087299       12.393825
       160.00000       1.0000000       2.4059495       12.393960
       160.00000       3.0000000       2.4051727       12.394003
       160.00000       10.000000       2.4049002       12.394021
       160.00000       30.000000       2.4048224       12.394026
       160.00000       100.00000       2.4047951       12.394028
       160.00000       300.00000       2.4047873       12.394028
       160.00000       1000.0000       2.3973757       12.394029
       160.00000       3000.0000       2.3866564       12.394029
       160.00000       10000.000       2.3829046       12.394029
       160.00000       30000.000       2.3818326       12.394029
       160.00000       100000.00       2.3814575       12.394029
       170.00000    0.0010000000       2.5379579       11.841406
       170.00000    0.0030000000       2.4551835       12.306891
       170.00000     0.010000000       2.4262111       12.480274
       170.00000     0.030000000       2.4179333       12.530876
       170.00000      0.10000000       2.4150364       12.548702
       170.00000      0.30000000       2.4141898       12.553790
       170.00000       1.0000000       2.4138620       12.555557
       170.00000       3.0000000       2.4080103       12.556026
       170.00000       10.000000       2.4057949       12.556100
       170.00000       30.000000       2.4050992       12.556083
       170.00000       100.00000       2.4048720       12.556086
       170.00000       300.00000       2.4048135       12.556081
       170.00000       1000.0000       2.4047925       12.556083
       170.00000       3000.0000       2.4018353       12.556078
       170.00000       10000.000       2.3874442       12.556078
       170.00000       30000.000       2.3833324       12.556078
       170.00000       100000.00       2.3818933       12.556078
       180.00000    0.0010000000       2.5619933       11.866675
       180.00000    0.0030000000       2.5619937       11.866675
       180.00000     0.010000000       2.5070416       12.167663
       180.00000     0.030000000       2.4447967       12.531306
       180.00000      0.10000000       2.4230103       12.664741
       180.00000      0.30000000       2.4167862       12.703481
       180.00000       1.0000000       2.4146075       12.717106
       180.00000       3.0000000       2.4139864       12.720995
       180.00000       10.000000       2.4104888       12.722349
       180.00000       30.000000       2.4067528       12.722697
       180.00000       100.00000       2.4053260       12.722733
       180.00000       300.00000       2.4048829       12.722688
       180.00000       1000.0000       2.4047164       12.722680
       180.00000       3000.0000       2.4046810       12.722674
       180.00000       10000.000       2.4015313       12.722670
       180.00000       30000.000       2.3879476       12.722670
       180.00000       100000.00       2.3831931       12.722670
       190.00000    0.0010000000       2.5616123       12.015627
       190.00000    0.0030000000       2.5616125       12.015628
       190.00000     0.010000000       2.5616124       12.015629
       190.00000     0.030000000       2.5616124       12.015629
       190.00000      0.10000000       2.4700678       12.535074
       190.00000      0.30000000       2.4322155       12.765767
       190.00000       1.0000000       2.4189685       12.848883
       190.00000       3.0000000       2.4151833       12.872867
       190.00000       10.000000       2.4138401       12.881269
       190.00000       30.000000       2.4134228       12.883656
       190.00000       100.00000       2.4072643       12.884438
       190.00000       300.00000       2.4052499       12.884566
       190.00000       1000.0000       2.4044763       12.884574
       190.00000       3000.0000       2.4042510       12.884578
       190.00000       10000.000       2.4041868       12.884575
       190.00000       30000.000       2.4004604       12.884577
       190.00000       100000.00       2.3866083       12.884578
       200.00000    0.0010000000       2.5615886       12.152192
       200.00000    0.0030000000       2.5615923       12.152201
       200.00000     0.010000000       2.5615923       12.152203
       200.00000     0.030000000       2.5615923       12.152203
       200.00000      0.10000000       2.5615926       12.152203
       200.00000      0.30000000       2.5093476       12.446182
       200.00000       1.0000000       2.4420933       12.850361
       200.00000       3.0000000       2.4228784       12.971585
       200.00000       10.000000       2.4161344       13.014633
       200.00000       30.000000       2.4141745       13.026979
       200.00000       100.00000       2.4134263       13.031256
       200.00000       300.00000       2.4083588       13.032397
       200.00000       1000.0000       2.4053953       13.032733
       200.00000       3000.0000       2.4045238       13.032838
       200.00000       10000.000       2.4042388       13.032873
       200.00000       30000.000       2.4041573       13.032883
       200.00000       100000.00       2.3962098       13.032886
       210.00000    0.0010000000       2.5615828       12.269683
       210.00000    0.0030000000       2.5615900       12.269915
       210.00000     0.010000000       2.5615927       12.269942
       210.00000     0.030000000       2.5615923       12.269944
       210.00000      0.10000000       2.5615919       12.269945
       210.00000      0.30000000       2.5615923       12.269952
       210.00000       1.0000000       2.5386192       12.398644
       210.00000       3.0000000       2.4550532       12.894932
       210.00000       10.000000       2.4257866       13.079865
       210.00000       30.000000       2.4174122       13.133850
       210.00000       100.00000       2.4144117       13.152806
       210.00000       300.00000       2.4134230       13.158154
       210.00000       1000.0000       2.4087722       13.159961
       210.00000       3000.0000       2.4056510       13.160504
       210.00000       10000.000       2.4045765       13.160668
       210.00000       30000.000       2.4042699       13.160712
       210.00000       100000.00       2.4041626       13.160727
       220.00000    0.0010000000       2.5614943       12.369106
       220.00000    0.0030000000       2.5615803       12.371271
       220.00000     0.010000000       2.5615915       12.371526
       220.00000     0.030000000       2.5615924       12.371549
       220.00000      0.10000000       2.5615927       12.371552
       220.00000      0.30000000       2.5615919       12.371560
       220.00000       1.0000000       2.5615926       12.371569
       220.00000       3.0000000       2.5615919       12.371621
       220.00000       10.000000       2.4609461       12.965667
       220.00000       30.000000       2.4291301       13.167664
       220.00000       100.00000       2.4179462       13.240024
       220.00000       300.00000       2.4146135       13.260794
       220.00000       1000.0000       2.4133677       13.268031
       220.00000       3000.0000       2.4092565       13.270212
       220.00000       10000.000       2.4056520       13.270811
       220.00000       30000.000       2.4046284       13.270977
       220.00000       100000.00       2.4042701       13.271036
       230.00000    0.0010000000       2.5610489       12.446127
       230.00000    0.0030000000       2.5614820       12.459572
       230.00000     0.010000000       2.5615818       12.461633
       230.00000     0.030000000       2.5615890       12.461826
       230.00000      0.10000000       2.5615926       12.461838
       230.00000      0.30000000       2.5615920       12.461847
       230.00000       1.0000000       2.5615919       12.461857
       230.00000       3.0000000       2.5615923       12.461909
       230.00000       10.000000       2.5615755       12.461943
       230.00000       30.000000       2.4670854       13.022648
       230.00000       100.00000       2.4293322       13.263146
       230.00000       300.00000       2.4184493       13.333745
       230.00000       1000.0000       2.4145269       13.358651
       230.00000       3000.0000       2.4133741       13.366214
       230.00000       10000.000       2.4087349       13.368241
       230.00000       30000.000       2.4056561       13.368812
       230.00000       100000.00       2.4045784       13.369011
       240.00000    0.0010000000       2.5599501       12.494172
       240.00000    0.0030000000       2.5611371       12.529746
       240.00000     0.010000000       2.5614949       12.541235
       240.00000     0.030000000       2.5615635       12.542518
       240.00000      0.10000000       2.5615892       12.542687
       240.00000      0.30000000       2.5615922       12.542698
       240.00000       1.0000000       2.5615923       12.542708
       240.00000       3.0000000       2.5615923       12.542761
       240.00000       10.000000       2.5615755       12.542795
       240.00000       30.000000       2.5615575       12.543298
       240.00000       100.00000       2.4626341       13.135811
       240.00000       300.00000       2.4295619       13.348251
       240.00000       1000.0000       2.4178352       13.424635
       240.00000       3000.0000       2.4144838       13.447973
       240.00000       10000.000       2.4133101       13.454242
       240.00000       30000.000       2.4083432       13.456006
       240.00000       100000.00       2.4053846       13.456623
       250.00000    0.0010000000       2.5586398       12.534566
       250.00000    0.0030000000       2.5601632       12.572122
       250.00000     0.010000000       2.5612803       12.605263
       250.00000     0.030000000       2.5615142       12.612063
       250.00000      0.10000000       2.5615680       12.612953
       250.00000      0.30000000       2.5615901       12.613068
       250.00000       1.0000000       2.5615906       12.613086
       250.00000       3.0000000       2.5615905       12.613139
       250.00000       10.000000       2.5615737       12.613173
       250.00000       30.000000       2.5615572       12.613666
       250.00000       100.00000       2.5515085       12.671600
       250.00000       300.00000       2.4591923       13.232099
       250.00000       1000.0000       2.4267461       13.442798
       250.00000       3000.0000       2.4174466       13.508180
       250.00000       10000.000       2.4141987       13.525835
       250.00000       30000.000       2.4132769       13.530807
       250.00000       100000.00       2.4073290       13.532547
       260.00000    0.0010000000       2.5565310       12.584620
       260.00000    0.0030000000       2.5589037       12.601378
       260.00000     0.010000000       2.5606081       12.644999
       260.00000     0.030000000       2.5613753       12.667617
       260.00000      0.10000000       2.5615133       12.671996
       260.00000      0.30000000       2.5615689       12.672435
       260.00000       1.0000000       2.5615691       12.672493
       260.00000       3.0000000       2.5615906       12.672565
       260.00000       10.000000       2.5615737       12.672599
       260.00000       30.000000       2.5615550       12.673102
       260.00000       100.00000       2.5615039       12.673669
       260.00000       300.00000       2.5322830       12.845592
       260.00000       1000.0000       2.4486716       13.365405
       260.00000       3000.0000       2.4247559       13.532714
       260.00000       10000.000       2.4163918       13.578427
       260.00000       30000.000       2.4140074       13.591347
       260.00000       100000.00       2.4116963       13.595875
       260.00000       300000.00       2.4066432       13.597170
       270.00000    0.0010000000       2.5530932       12.645450
       270.00000    0.0030000000       2.5570874       12.638153
       270.00000     0.010000000       2.5594775       12.666842
       270.00000     0.030000000       2.5608944       12.705534
       270.00000      0.10000000       2.5614412       12.721205
       270.00000      0.30000000       2.5615384       12.723121
       270.00000       1.0000000       2.5615686       12.723368
       270.00000       3.0000000       2.5615722       12.723430
       270.00000       10.000000       2.5615718       12.723501
       270.00000       30.000000       2.5615734       12.724021
       270.00000       100.00000       2.5615243       12.724568
       270.00000       300.00000       2.5614388       12.727131
       270.00000       1000.0000       2.4990965       13.105935
       270.00000       3000.0000       2.4415557       13.496806
       270.00000       10000.000       2.4214325       13.606210
       270.00000       30000.000       2.4156879       13.637405
       270.00000       100000.00       2.4136774       13.648365
       270.00000       300000.00       2.4097129       13.651503
       275.00000    0.0010000000       2.5517611       12.673404
       275.00000    0.0030000000       2.5556445       12.662220
       275.00000     0.010000000       2.5588069       12.677655
       275.00000     0.030000000       2.5604681       12.717535
       275.00000      0.10000000       2.5613369       12.742223
       275.00000      0.30000000       2.5614882       12.746077
       275.00000       1.0000000       2.5615672       12.746566
       275.00000       3.0000000       2.5615709       12.746651
       275.00000       10.000000       2.5615725       12.746724
       275.00000       30.000000       2.5615737       12.747244
       275.00000       100.00000       2.5615203       12.747811
       275.00000       300.00000       2.5614354       12.750373
       275.00000       1000.0000       2.5425068       12.873075
       275.00000       3000.0000       2.4560387       13.444625
       275.00000       10000.000       2.4257714       13.607812
       275.00000       30000.000       2.4171344       13.654683
       275.00000       100000.00       2.4141110       13.671189
       275.00000       300000.00       2.4122644       13.675918
       280.00000    0.0010000000       2.5509602       12.697908
       280.00000    0.0030000000       2.5539629       12.688904
       280.00000     0.010000000       2.5580235       12.691092
       280.00000     0.030000000       2.5599522       12.726578
       280.00000      0.10000000       2.5611919       12.760514
       280.00000      0.30000000       2.5614654       12.767727
       280.00000       1.0000000       2.5615450       12.768683
       280.00000       3.0000000       2.5615700       12.768828
       280.00000       10.000000       2.5615719       12.768896
       280.00000       30.000000       2.5615734       12.769417
       280.00000       100.00000       2.5615185       12.769994
       280.00000       300.00000       2.5614354       12.772545
       280.00000       1000.0000       2.5612984       12.787676
       280.00000       3000.0000       2.4734090       13.377072
       280.00000       10000.000       2.4309824       13.603581
       280.00000       30000.000       2.4188711       13.669208
       280.00000       100000.00       2.4146321       13.692383
       280.00000       300000.00       2.4134213       13.699027
       290.00000    0.0010000000       2.5502398       12.739550
       290.00000    0.0030000000       2.5514393       12.737900
       290.00000     0.010000000       2.5555769       12.727971
       290.00000     0.030000000       2.5587055       12.743283
       290.00000      0.10000000       2.5606020       12.786200
       290.00000      0.30000000       2.5613087       12.805793
       290.00000       1.0000000       2.5614918       12.809285
       290.00000       3.0000000       2.5615459       12.809664
       290.00000       10.000000       2.5615692       12.809776
       290.00000       30.000000       2.5615554       12.810263
       290.00000       100.00000       2.5615199       12.810855
       290.00000       300.00000       2.5614518       12.813452
       290.00000       1000.0000       2.5613151       12.828572
       290.00000       3000.0000       2.5278331       13.144551
       290.00000       10000.000       2.4473096       13.560040
       290.00000       30000.000       2.4243135       13.683684
       290.00000       100000.00       2.4162651       13.727713
       290.00000       300000.00       2.4139656       13.740372
       300.00000    0.0010000000       2.5627732       12.733627
       300.00000    0.0030000000       2.5628548       12.735783
       300.00000     0.010000000       2.5630570       12.742978
       300.00000     0.030000000       2.5636176       12.761095
       300.00000      0.10000000       2.5648577       12.802094
       300.00000      0.30000000       2.5659465       12.837150
       300.00000       1.0000000       2.5662575       12.847604
       300.00000       3.0000000       2.5663072       12.848774
       300.00000       10.000000       2.5663146       12.848968
       300.00000       30.000000       2.5663162       12.849497
       300.00000       100.00000       2.5663159       12.850150
       300.00000       300.00000       2.5663159       12.852893
       300.00000       1000.0000       2.5663159       12.868281
       300.00000       3000.0000       2.5663159       13.022966
       300.00000       10000.000       2.4807812       13.452113
       300.00000       30000.000       2.4389443       13.672583
       300.00000       100000.00       2.4243022       13.752207
       300.00000       300000.00       2.4201185       13.775212
       310.00000    0.0010000000       2.5627520       12.761879
       310.00000    0.0030000000       2.5627785       12.763074
       310.00000     0.010000000       2.5629176       12.767173
       310.00000     0.030000000       2.5632416       12.778061
       310.00000      0.10000000       2.5641649       12.808121
       310.00000      0.30000000       2.5654263       12.850160
       310.00000       1.0000000       2.5661798       12.873935
       310.00000       3.0000000       2.5662875       12.877504
       310.00000       10.000000       2.5663109       12.877968
       310.00000       30.000000       2.5663149       12.878524
       310.00000       100.00000       2.5663160       12.879170
       310.00000       300.00000       2.5663159       12.881913
       310.00000       1000.0000       2.5663159       12.897301
       310.00000       3000.0000       2.5663159       13.051986
       310.00000       10000.000       2.5278695       13.245554
       310.00000       30000.000       2.4546410       13.619478
       310.00000       100000.00       2.4290110       13.757696
       310.00000       300000.00       2.4216882       13.797949
       320.00000    0.0010000000       2.5627426       12.785677
       320.00000    0.0030000000       2.5627675       12.786383
       320.00000     0.010000000       2.5628601       12.788752
       320.00000     0.030000000       2.5630511       12.795279
       320.00000      0.10000000       2.5636434       12.815183
       320.00000      0.30000000       2.5647966       12.852904
       320.00000       1.0000000       2.5659327       12.891461
       320.00000       3.0000000       2.5662381       12.900899
       320.00000       10.000000       2.5663031       12.902213
       320.00000       30.000000       2.5663130       12.902830
       320.00000       100.00000       2.5663143       12.903485
       320.00000       300.00000       2.5663141       12.906229
       320.00000       1000.0000       2.5663159       12.921607
       320.00000       3000.0000       2.5663159       13.076292
       320.00000       10000.000       2.5663159       13.085186
       320.00000       30000.000       2.4799110       13.512443
       320.00000       100000.00       2.4365915       13.742398
       320.00000       300000.00       2.4242152       13.810223
       330.00000    0.0010000000       2.5627356       12.806941
       330.00000    0.0030000000       2.5627520       12.807349
       330.00000     0.010000000       2.5627864       12.808762
       330.00000     0.030000000       2.5629193       12.812700
       330.00000      0.10000000       2.5633106       12.825425
       330.00000      0.30000000       2.5641741       12.854037
       330.00000       1.0000000       2.5655409       12.899758
       330.00000       3.0000000       2.5661559       12.920104
       330.00000       10.000000       2.5662762       12.923673
       330.00000       30.000000       2.5663036       12.924456
       330.00000       100.00000       2.5663111       12.925116
       330.00000       300.00000       2.5663142       12.927841
       330.00000       1000.0000       2.5663141       12.943230
       330.00000       3000.0000       2.5663159       13.097904
       330.00000       10000.000       2.5663159       13.106799
       330.00000       30000.000       2.5193483       13.334558
       330.00000       100000.00       2.4484239       13.701365
       330.00000       300000.00       2.4281589       13.811693
       340.00000    0.0010000000       2.5627527       12.826252
       340.00000    0.0030000000       2.5627433       12.826478
       340.00000     0.010000000       2.5627777       12.827343
       340.00000     0.030000000       2.5628482       12.829764
       340.00000      0.10000000       2.5630824       12.837844
       340.00000      0.30000000       2.5636925       12.857839
       340.00000       1.0000000       2.5649838       12.900868
       340.00000       3.0000000       2.5659958       12.933839
       340.00000       10.000000       2.5662303       12.942698
       340.00000       30.000000       2.5662875       12.944031
       340.00000       100.00000       2.5663051       12.944707
       340.00000       300.00000       2.5663107       12.947427
       340.00000       1000.0000       2.5663141       12.962796
       340.00000       3000.0000       2.5663141       13.117478
       340.00000       10000.000       2.5663159       13.126365
       340.00000       30000.000       2.5663159       13.126264
       340.00000       100000.00       2.4663707       13.626212
       340.00000       300000.00       2.4341416       13.799690
       350.00000    0.0010000000       2.5627511       12.842833
       350.00000    0.0030000000       2.5627365       12.842974
       350.00000     0.010000000       2.5627578       12.843515
       350.00000     0.030000000       2.5627977       12.845032
       350.00000      0.10000000       2.5629576       12.850201
       350.00000      0.30000000       2.5633773       12.863713
       350.00000       1.0000000       2.5644386       12.898657
       350.00000       3.0000000       2.5656662       12.939844
       350.00000       10.000000       2.5661933       12.957912
       350.00000       30.000000       2.5662581       12.960770
       350.00000       100.00000       2.5662918       12.961556
       350.00000       300.00000       2.5663056       12.964250
       350.00000       1000.0000       2.5663106       12.979609
       350.00000       3000.0000       2.5663141       13.134271
       350.00000       10000.000       2.5663141       13.143165
       350.00000       30000.000       2.5663159       13.143057
       350.00000       100000.00       2.4929055       13.505202
       350.00000       300000.00       2.4429869       13.769106
       375.00000    0.0010000000       2.5627479       12.872092
       375.00000    0.0030000000       2.5627511       12.872138
       375.00000     0.010000000       2.5627397       12.872296
       375.00000     0.030000000       2.5627581       12.872833
       375.00000      0.10000000       2.5628259       12.874633
       375.00000      0.30000000       2.5629793       12.879633
       375.00000       1.0000000       2.5634477       12.895452
       375.00000       3.0000000       2.5644387       12.928711
       375.00000       10.000000       2.5657510       12.972743
       375.00000       30.000000       2.5661937       12.988097
       375.00000       100.00000       2.5662596       12.991058
       375.00000       300.00000       2.5662701       12.993955
       375.00000       1000.0000       2.5662875       13.008999
       375.00000       3000.0000       2.5663033       13.160481
       375.00000       10000.000       2.5663105       13.169842
       375.00000       30000.000       2.5663141       13.172855
       375.00000       100000.00       2.5663141       13.171668
       375.00000       300000.00       2.4853120       13.573949
       400.00000    0.0010000000       2.5626914       12.894201
       400.00000    0.0030000000       2.5626950       12.894212
       400.00000     0.010000000       2.5626979       12.894283
       400.00000     0.030000000       2.5626833       12.894482
       400.00000      0.10000000       2.5627119       12.895178
       400.00000      0.30000000       2.5627857       12.897162
       400.00000       1.0000000       2.5629831       12.903806
       400.00000       3.0000000       2.5634907       12.920761
       400.00000       10.000000       2.5646957       12.960758
       400.00000       30.000000       2.5658009       12.998800
       400.00000       100.00000       2.5661736       13.011781
       400.00000       300.00000       2.5662063       13.015327
       400.00000       1000.0000       2.5662160       13.027043
       400.00000       3000.0000       2.5662153       13.138142
       400.00000       10000.000       2.5662313       13.153987
       400.00000       30000.000       2.5662475       13.197776
       400.00000       100000.00       2.5662547       13.198104
       400.00000       300000.00       2.5614950       13.216670
       425.00000    0.0010000000       2.5626617       12.909905
       425.00000    0.0030000000       2.5626876       12.909784
       425.00000     0.010000000       2.5626931       12.909806
       425.00000     0.030000000       2.5626991       12.909879
       425.00000      0.10000000       2.5626877       12.910180
       425.00000      0.30000000       2.5627233       12.911026
       425.00000       1.0000000       2.5628129       12.913954
       425.00000       3.0000000       2.5630400       12.921925
       425.00000       10.000000       2.5637598       12.945556
       425.00000       30.000000       2.5649922       12.986541
       425.00000       100.00000       2.5659780       13.020933
       425.00000       300.00000       2.5661788       13.029419
       425.00000       1000.0000       2.5662107       13.038483
       425.00000       3000.0000       2.5662149       13.111776
       425.00000       10000.000       2.5662152       13.134127
       425.00000       30000.000       2.5662150       13.216070
       425.00000       100000.00       2.5662367       13.217864
       425.00000       300000.00       2.5662511       13.212623
       450.00000    0.0010000000       2.5621196       12.923368
       450.00000    0.0030000000       2.5626314       12.920979
       450.00000     0.010000000       2.5626861       12.920690
       450.00000     0.030000000       2.5626957       12.920708
       450.00000      0.10000000       2.5627018       12.920846
       450.00000      0.30000000       2.5626956       12.921239
       450.00000       1.0000000       2.5627280       12.922619
       450.00000       3.0000000       2.5628557       12.926477
       450.00000       10.000000       2.5632536       12.938953
       450.00000       30.000000       2.5640907       12.967380
       450.00000       100.00000       2.5654618       13.013866
       450.00000       300.00000       2.5660898       13.036348
       450.00000       1000.0000       2.5661981       13.045116
       450.00000       3000.0000       2.5662122       13.083075
       450.00000       10000.000       2.5662157       13.111692
       450.00000       30000.000       2.5662151       13.229350
       450.00000       100000.00       2.5662150       13.232748
       450.00000       300000.00       2.5662258       13.226575
       475.00000    0.0010000000       2.5569826       12.957511
       475.00000    0.0030000000       2.5617451       12.933989
       475.00000     0.010000000       2.5626050       12.929835
       475.00000     0.030000000       2.5626806       12.929463
       475.00000      0.10000000       2.5626958       12.929496
       475.00000      0.30000000       2.5626836       12.929682
       475.00000       1.0000000       2.5627115       12.930376
       475.00000       3.0000000       2.5627844       12.932349
       475.00000       10.000000       2.5629791       12.938943
       475.00000       30.000000       2.5634808       12.955869
       475.00000       100.00000       2.5646758       12.995882
       475.00000       300.00000       2.5657925       13.034598
       475.00000       1000.0000       2.5661713       13.050479
       475.00000       3000.0000       2.5662054       13.071390
       475.00000       10000.000       2.5662143       13.100029
       475.00000       30000.000       2.5662153       13.219429
       475.00000       100000.00       2.5662151       13.250519
       475.00000       300000.00       2.5662150       13.243900
       500.00000    0.0010000000       2.5421700       13.040317
       500.00000    0.0030000000       2.5578194       12.959214
       500.00000     0.010000000       2.5619867       12.941860
       500.00000     0.030000000       2.5626099       12.939278
       500.00000      0.10000000       2.5626852       12.939008
       500.00000      0.30000000       2.5626974       12.939102
       500.00000       1.0000000       2.5626917       12.939462
       500.00000       3.0000000       2.5627159       12.940496
       500.00000       10.000000       2.5628532       12.944130
       500.00000       30.000000       2.5631431       12.953911
       500.00000       100.00000       2.5639567       12.981644
       500.00000       300.00000       2.5652263       13.024516
       500.00000       1000.0000       2.5660495       13.054534
       500.00000       3000.0000       2.5661894       13.064540
       500.00000       10000.000       2.5662125       13.092271
       500.00000       30000.000       2.5662161       13.207175
       500.00000       100000.00       2.5662151       13.271141
       500.00000       300000.00       2.5662150       13.262675
       575.00000    0.0010000000       2.5390692       13.059478
       575.00000    0.0030000000       2.5394522       13.058267
       575.00000     0.010000000       2.5424625       13.048509
       575.00000     0.030000000       2.5506103       13.021446
       575.00000      0.10000000       2.5597110       12.990306
       575.00000      0.30000000       2.5622678       12.981442
       575.00000       1.0000000       2.5626656       12.980224
       575.00000       3.0000000       2.5627021       12.980327
       575.00000       10.000000       2.5627155       12.981077
       575.00000       30.000000       2.5627983       12.983255
       575.00000       100.00000       2.5629911       12.990505
       575.00000       300.00000       2.5635217       13.008857
       575.00000       1000.0000       2.5647573       13.051157
       575.00000       3000.0000       2.5658432       13.090022
       575.00000       10000.000       2.5661617       13.112186
       575.00000       30000.000       2.5662092       13.156443
       575.00000       100000.00       2.5662156       13.345810
       575.00000       300000.00       2.5662153       13.489315
       650.00000    0.0010000000       2.5390428       13.087480
       650.00000    0.0030000000       2.5390444       13.087476
       650.00000     0.010000000       2.5390496       13.087430
       650.00000     0.030000000       2.5392391       13.086909
       650.00000      0.10000000       2.5411069       13.081766
       650.00000      0.30000000       2.5479805       13.062383
       650.00000       1.0000000       2.5583733       13.032641
       650.00000       3.0000000       2.5620426       13.022111
       650.00000       10.000000       2.5626484       13.020630
       650.00000       30.000000       2.5627016       13.021140
       650.00000       100.00000       2.5627902       13.023329
       650.00000       300.00000       2.5629574       13.029419
       650.00000       1000.0000       2.5635052       13.048374
       650.00000       3000.0000       2.5645922       13.086232
       650.00000       10000.000       2.5658324       13.132723
       650.00000       30000.000       2.5661658       13.161861
       650.00000       100000.00       2.5662079       13.301362
       650.00000       300000.00       2.5662146       14.146373
       725.00000    0.0010000000       2.5392283       13.136888
       725.00000    0.0030000000       2.5391253       13.136902
       725.00000     0.010000000       2.5390230       13.136916
       725.00000     0.030000000       2.5390092       13.136912
       725.00000      0.10000000       2.5390640       13.136846
       725.00000      0.30000000       2.5393554       13.136149
       725.00000       1.0000000       2.5418768       13.130212
       725.00000       3.0000000       2.5499256       13.111032
       725.00000       10.000000       2.5596528       13.087712
       725.00000       30.000000       2.5622974       13.081615
       725.00000       100.00000       2.5626921       13.081567
       725.00000       300.00000       2.5627993       13.083843
       725.00000       1000.0000       2.5630129       13.091713
       725.00000       3000.0000       2.5635944       13.111509
       725.00000       10000.000       2.5648380       13.157045
       725.00000       30000.000       2.5658650       13.201528
       725.00000       100000.00       2.5661674       13.279336
       725.00000       300000.00       2.5662084       13.861157
       800.00000    0.0010000000       2.5403514       13.217153
       800.00000    0.0030000000       2.5403526       13.217153
       800.00000     0.010000000       2.5403526       13.217153
       800.00000     0.030000000       2.5395298       13.217172
       800.00000      0.10000000       2.5391886       13.217177
       800.00000      0.30000000       2.5391056       13.217181
       800.00000       1.0000000       2.5391645       13.216967
       800.00000       3.0000000       2.5400103       13.215261
       800.00000       10.000000       2.5453989       13.204585
       800.00000       30.000000       2.5554576       13.184509
       800.00000       100.00000       2.5616334       13.172547
       800.00000       300.00000       2.5626122       13.171688
       800.00000       1000.0000       2.5628313       13.175123
       800.00000       3000.0000       2.5631123       13.184981
       800.00000       10000.000       2.5639047       13.213879
       800.00000       30000.000       2.5651617       13.262270
       800.00000       100000.00       2.5660312       13.320277
       800.00000       300000.00       2.5661867       13.445122
       900.00000    0.0010000000       2.5403112       13.327687
       900.00000    0.0030000000       2.5403340       13.327686
       900.00000     0.010000000       2.5403424       13.327686
       900.00000     0.030000000       2.5403448       13.327686
       900.00000      0.10000000       2.5403454       13.327686
       900.00000      0.30000000       2.5403460       13.327684
       900.00000       1.0000000       2.5403161       13.327681
       900.00000       3.0000000       2.5395304       13.327683
       900.00000       10.000000       2.5394443       13.327347
       900.00000       30.000000       2.5411973       13.324612
       900.00000       100.00000       2.5492825       13.312405
       900.00000       300.00000       2.5587926       13.298357
       900.00000       1000.0000       2.5623134       13.294637
       900.00000       3000.0000       2.5628212       13.298381
       900.00000       10000.000       2.5632462       13.312552
       900.00000       30000.000       2.5640979       13.345363
       900.00000       100000.00       2.5654919       13.407563
       900.00000       300000.00       2.5660966       13.478447
       1000.0000    0.0010000000       2.5400017       13.464854
       1000.0000    0.0030000000       2.5402292       13.464849
       1000.0000     0.010000000       2.5403163       13.464849
       1000.0000     0.030000000       2.5403433       13.464849
       1000.0000      0.10000000       2.5403533       13.464849
       1000.0000      0.30000000       2.5403567       13.464849
       1000.0000       1.0000000       2.5403579       13.464848
       1000.0000       3.0000000       2.5403592       13.464848
       1000.0000       10.000000       2.5403519       13.464847
       1000.0000       30.000000       2.5404746       13.464749
       1000.0000       100.00000       2.5407959       13.463603
       1000.0000       300.00000       2.5459013       13.457796
       1000.0000       1000.0000       2.5568148       13.446355
       1000.0000       3000.0000       2.5618090       13.443021
       1000.0000       10000.000       2.5628916       13.449593
       1000.0000       30000.000       2.5634567       13.468972
       1000.0000       100000.00       2.5646327       13.519190
       1000.0000       300000.00       2.5658031       13.587547
       1100.0000    0.0010000000       2.5386079       13.619360
       1100.0000    0.0030000000       2.5395588       13.619389
       1100.0000     0.010000000       2.5400601       13.619400
       1100.0000     0.030000000       2.5402338       13.619421
       1100.0000      0.10000000       2.5403020       13.619430
       1100.0000      0.30000000       2.5403442       13.619447
       1100.0000       1.0000000       2.5403526       13.619448
       1100.0000       3.0000000       2.5403557       13.619447
       1100.0000       10.000000       2.5403581       13.619449
       1100.0000       30.000000       2.5403475       13.619456
       1100.0000       100.00000       2.5404651       13.619429
       1100.0000       300.00000       2.5413636       13.618929
       1100.0000       1000.0000       2.5464081       13.615292
       1100.0000       3000.0000       2.5560095       13.608953
       1100.0000       10000.000       2.5619481       13.608821
       1100.0000       30000.000       2.5630682       13.619971
       1100.0000       100000.00       2.5639814       13.655267
       1100.0000       300000.00       2.5652489       13.718169
       1200.0000    0.0010000000       2.5387744       13.790449
       1200.0000    0.0030000000       2.5385801       13.790767
       1200.0000     0.010000000       2.5393171       13.790975
       1200.0000     0.030000000       2.5398622       13.791219
       1200.0000      0.10000000       2.5401622       13.791415
       1200.0000      0.30000000       2.5402775       13.791512
       1200.0000       1.0000000       2.5403345       13.791583
       1200.0000       3.0000000       2.5403439       13.791618
       1200.0000       10.000000       2.5403483       13.791628
       1200.0000       30.000000       2.5403492       13.791651
       1200.0000       100.00000       2.5403655       13.791694
       1200.0000       300.00000       2.5404837       13.791711
       1200.0000       1000.0000       2.5417156       13.791503
       1200.0000       3000.0000       2.5474035       13.789353
       1200.0000       10000.000       2.5581906       13.788465
       1200.0000       30000.000       2.5624613       13.794212
       1200.0000       100000.00       2.5636291       13.818350
       1200.0000       300000.00       2.5647727       13.870166
       1300.0000    0.0010000000       2.5756962       13.938603
       1300.0000    0.0030000000       2.5591407       13.959614
       1300.0000     0.010000000       2.5441569       13.967784
       1300.0000     0.030000000       2.5408033       13.970278
       1300.0000      0.10000000       2.5402003       13.971198
       1300.0000      0.30000000       2.5402290       13.971484
       1300.0000       1.0000000       2.5403199       13.971625
       1300.0000       3.0000000       2.5403520       13.971806
       1300.0000       10.000000       2.5403682       13.971991
       1300.0000       30.000000       2.5403718       13.972176
       1300.0000       100.00000       2.5403656       13.972283
       1300.0000       300.00000       2.5403888       13.972399
       1300.0000       1000.0000       2.5406529       13.972511
       1300.0000       3000.0000       2.5424395       13.971460
       1300.0000       10000.000       2.5504970       13.975610
       1300.0000       30000.000       2.5602072       13.981519
       1300.0000       100000.00       2.5637277       13.999093
       1300.0000       300000.00       2.5646311       14.039698
       1400.0000    0.0010000000       2.6012509       14.029511
       1400.0000    0.0030000000       2.6044946       14.030140
       1400.0000     0.010000000       2.5878707       14.107629
       1400.0000     0.030000000       2.5795616       14.137948
       1400.0000      0.10000000       2.5511751       14.165033
       1400.0000      0.30000000       2.5434782       14.173909
       1400.0000       1.0000000       2.5410842       14.177220
       1400.0000       3.0000000       2.5405400       14.178199
       1400.0000       10.000000       2.5404346       14.178534
       1400.0000       30.000000       2.5404327       14.178639
       1400.0000       100.00000       2.5404438       14.178709
       1400.0000       300.00000       2.5404666       14.178832
       1400.0000       1000.0000       2.5405475       14.179051
       1400.0000       3000.0000       2.5410596       14.179630
       1400.0000       10000.000       2.5447115       14.183836
       1400.0000       30000.000       2.5541313       14.194594
       1400.0000       100000.00       2.5627133       14.213813
       1400.0000       300000.00       2.5650010       14.247354
       1500.0000    0.0010000000       2.5854809       14.242641
       1500.0000    0.0030000000       2.5946944       14.248114
       1500.0000     0.010000000       2.6010077       14.250840
       1500.0000     0.030000000       2.6048350       14.251620
       1500.0000      0.10000000       2.5987228       14.289011
       1500.0000      0.30000000       2.5852855       14.343749
       1500.0000       1.0000000       2.5576633       14.374281
       1500.0000       3.0000000       2.5459176       14.392959
       1500.0000       10.000000       2.5419004       14.400106
       1500.0000       30.000000       2.5408322       14.402241
       1500.0000       100.00000       2.5405432       14.403024
       1500.0000       300.00000       2.5404771       14.403263
       1500.0000       1000.0000       2.5404939       14.403471
       1500.0000       3000.0000       2.5406638       14.404036
       1500.0000       10000.000       2.5420577       14.407409
       1500.0000       30000.000       2.5480185       14.420744
       1500.0000       100000.00       2.5592230       14.450005
       1500.0000       300000.00       2.5641912       14.483532
       1600.0000    0.0010000000       2.5429013       14.398742
       1600.0000    0.0030000000       2.5693353       14.418194
       1600.0000     0.010000000       2.5863041       14.429560
       1600.0000     0.030000000       2.5956039       14.434769
       1600.0000      0.10000000       2.6020804       14.437291
       1600.0000      0.30000000       2.6060117       14.438066
       1600.0000       1.0000000       2.6066360       14.447474
       1600.0000       3.0000000       2.5813570       14.521308
       1600.0000       10.000000       2.5611380       14.550483
       1600.0000       30.000000       2.5473551       14.577058
       1600.0000       100.00000       2.5423945       14.587523
       1600.0000       300.00000       2.5410314       14.590690
       1600.0000       1000.0000       2.5406282       14.591884
       1600.0000       3000.0000       2.5405835       14.592624
       1600.0000       10000.000       2.5410945       14.595101
       1600.0000       30000.000       2.5441008       14.607219
       1600.0000       100000.00       2.5541455       14.647320
       1600.0000       300000.00       2.5625335       14.693813
       1700.0000    0.0010000000       2.4425174       14.501800
       1700.0000    0.0030000000       2.5086626       14.558363
       1700.0000     0.010000000       2.5518297       14.591854
       1700.0000     0.030000000       2.5748485       14.608270
       1700.0000      0.10000000       2.5899027       14.617683
       1700.0000      0.30000000       2.5982899       14.621863
       1700.0000       1.0000000       2.6042183       14.623900
       1700.0000       3.0000000       2.6076708       14.624642
       1700.0000       10.000000       2.6077595       14.634417
       1700.0000       30.000000       2.5737161       14.709255
       1700.0000       100.00000       2.5602757       14.736146
       1700.0000       300.00000       2.5472250       14.764605
       1700.0000       1000.0000       2.5424473       14.775904
       1700.0000       3000.0000       2.5411268       14.779577
       1700.0000       10000.000       2.5408926       14.782420
       1700.0000       30000.000       2.5421967       14.792058
       1700.0000       100000.00       2.5493552       14.836408
       1700.0000       300000.00       2.5596500       14.906642
       1800.0000    0.0010000000       2.2471987       14.471364
       1800.0000    0.0030000000       2.3829490       14.623523
       1800.0000     0.010000000       2.4780968       14.710823
       1800.0000     0.030000000       2.5305306       14.753260
       1800.0000      0.10000000       2.5645290       14.778398
       1800.0000      0.30000000       2.5828449       14.790539
       1800.0000       1.0000000       2.5950364       14.797343
       1800.0000       3.0000000       2.6019760       14.800304
       1800.0000       10.000000       2.6067144       14.801856
       1800.0000       30.000000       2.6093014       14.802544
       1800.0000       100.00000       2.5897033       14.837475
       1800.0000       300.00000       2.5662715       14.897365
       1800.0000       1000.0000       2.5560183       14.922793
       1800.0000       3000.0000       2.5457887       14.947166
       1800.0000       10000.000       2.5421605       14.957703
       1800.0000       30000.000       2.5417431       14.967261
       1800.0000       100000.00       2.5458341       15.009779
       1800.0000       300000.00       2.5558367       15.104230
       1900.0000    0.0010000000       1.9555167       14.154658
       1900.0000    0.0030000000       2.1674641       14.536553
       1900.0000     0.010000000       2.3406024       14.750249
       1900.0000     0.030000000       2.4446262       14.850972
       1900.0000      0.10000000       2.5148925       14.909798
       1900.0000      0.30000000       2.5529972       14.938621
       1900.0000       1.0000000       2.5777512       14.955540
       1900.0000       3.0000000       2.5913427       14.963559
       1900.0000       10.000000       2.6005121       14.967974
       1900.0000       30.000000       2.6056083       14.969983
       1900.0000       100.00000       2.6089329       14.971122
       1900.0000       300.00000       2.6016244       14.971673
       1900.0000       1000.0000       2.5728206       15.041323
       1900.0000       3000.0000       2.5610346       15.078746
       1900.0000       10000.000       2.5485271       15.111174
       1900.0000       30000.000       2.5434609       15.129728
       1900.0000       100000.00       2.5441333       15.170061
       1900.0000       300000.00       2.5520610       15.280939
       2000.0000    0.0010000000       1.6567519       13.295951
       2000.0000    0.0030000000       1.8820162       14.158460
       2000.0000     0.010000000       2.1254821       14.641225
       2000.0000     0.030000000       2.2983028       14.866690
       2000.0000      0.10000000       2.4261594       14.995153
       2000.0000      0.30000000       2.4987977       15.057087
       2000.0000       1.0000000       2.5466108       15.093688
       2000.0000       3.0000000       2.5724613       15.111523
       2000.0000       10.000000       2.5895169       15.121846
       2000.0000       30.000000       2.5989701       15.126668
       2000.0000       100.00000       2.6052095       15.129410
       2000.0000       300.00000       2.6085311       15.130767
       2000.0000       1000.0000       2.6012007       15.131553
       2000.0000       3000.0000       2.5820279       15.163772
       2000.0000       10000.000       2.5631436       15.230984
       2000.0000       30000.000       2.5496354       15.271663
       2000.0000       100000.00       2.5446254       15.317516
       2000.0000       300000.00       2.5491143       15.436488
       2150.0000    0.0010000000       1.4352709       9.2110975
       2150.0000    0.0030000000       1.5293457       12.300352
       2150.0000     0.010000000       1.7303070       13.943938
       2150.0000     0.030000000       1.9635098       14.603811
       2150.0000      0.10000000       2.1928285       14.974511
       2150.0000      0.30000000       2.3462563       15.149408
       2150.0000       1.0000000       2.4561181       15.250544
       2150.0000       3.0000000       2.5175265       15.299759
       2150.0000       10.000000       2.5578204       15.328879
       2150.0000       30.000000       2.5797138       15.343022
       2150.0000       100.00000       2.5941534       15.351251
       2150.0000       300.00000       2.6020090       15.355244
       2150.0000       1000.0000       2.6070823       15.357591
       2150.0000       3000.0000       2.6097333       15.358897
       2150.0000       10000.000       2.5917497       15.360106
       2150.0000       30000.000       2.5761530       15.408225
       2150.0000       100000.00       2.5544138       15.500701
       2150.0000       300000.00       2.5486989       15.634524
       2300.0000    0.0010000000       1.3886151       4.1327376
       2300.0000    0.0030000000       1.4111741       7.3677617
       2300.0000     0.010000000       1.4801181       11.368292
       2300.0000     0.030000000       1.6219235       13.592122
       2300.0000      0.10000000       1.8627992       14.616788
       2300.0000      0.30000000       2.0906358       15.053060
       2300.0000       1.0000000       2.2881548       15.301854
       2300.0000       3.0000000       2.4108864       15.420844
       2300.0000       10.000000       2.4954249       15.490668
       2300.0000       30.000000       2.5419145       15.524868
       2300.0000       100.00000       2.5723645       15.545113
       2300.0000       300.00000       2.5889472       15.554951
       2300.0000       1000.0000       2.5997160       15.560801
       2300.0000       3000.0000       2.6054475       15.563768
       2300.0000       10000.000       2.6090803       15.565981
       2300.0000       30000.000       2.5940169       15.568508
       2300.0000       100000.00       2.5870429       15.580443
       2300.0000       300000.00       2.5643482       15.753765
       2450.0000    0.0010000000       1.3791995       2.0966586
       2450.0000    0.0030000000       1.3849395       3.4346048
       2450.0000     0.010000000       1.4035946       6.5758215
       2450.0000     0.030000000       1.4515949       10.409440
       2450.0000      0.10000000       1.5792123       13.422836
       2450.0000      0.30000000       1.7824568       14.624346
       2450.0000       1.0000000       2.0380970       15.190091
       2450.0000       3.0000000       2.2345301       15.450579
       2450.0000       10.000000       2.3860069       15.601463
       2450.0000       30.000000       2.4741964       15.674796
       2450.0000       100.00000       2.5331737       15.718272
       2450.0000       300.00000       2.5652783       15.739645
       2450.0000       1000.0000       2.5862418       15.752337
       2450.0000       3000.0000       2.5974954       15.758663
       2450.0000       10000.000       2.6046813       15.762786
       2450.0000       30000.000       2.6084425       15.766096
       2450.0000       100000.00       2.5937249       15.775906
       2450.0000       300000.00       2.5880408       15.831320
       2600.0000    0.0010000000       1.3747751       1.5439807
       2600.0000    0.0030000000       1.3779745       1.9766081
       2600.0000     0.010000000       1.3839789       3.3049092
       2600.0000     0.030000000       1.3988443       6.0022520
       2600.0000      0.10000000       1.4455178       10.224589
       2600.0000      0.30000000       1.5503776       13.244526
       2600.0000       1.0000000       1.7611293       14.764471
       2600.0000       3.0000000       1.9956901       15.321646
       2600.0000       10.000000       2.2190234       15.621992
       2600.0000       30.000000       2.3649268       15.765895
       2600.0000       100.00000       2.4681288       15.850617
       2600.0000       300.00000       2.5256931       15.892259
       2600.0000       1000.0000       2.5635179       15.917093
       2600.0000       3000.0000       2.5839394       15.929428
       2600.0000       10000.000       2.5970831       15.937096
       2600.0000       30000.000       2.6040204       15.941980
       2600.0000       100000.00       2.6083955       15.951315
       2600.0000       300000.00       2.5934194       15.995967
       2800.0000    0.0010000000       1.3640564       1.3748703
       2800.0000    0.0030000000       1.3690441       1.4764758
       2800.0000     0.010000000       1.3746452       1.8208117
       2800.0000     0.030000000       1.3802152       2.7203494
       2800.0000      0.10000000       1.3926396       5.1373345
       2800.0000      0.30000000       1.4234832       8.8662673
       2800.0000       1.0000000       1.5118764       12.748695
       2800.0000       3.0000000       1.6764470       14.634091
       2800.0000       10.000000       1.9272504       15.442804
       2800.0000       30.000000       2.1469447       15.767677
       2800.0000       100.00000       2.3281665       15.952167
       2800.0000       300.00000       2.4376463       16.041997
       2800.0000       1000.0000       2.5121927       16.095469
       2800.0000       3000.0000       2.5530450       16.121967
       2800.0000       10000.000       2.5795997       16.138082
       2800.0000       30000.000       2.5937282       16.146967
       2800.0000       100000.00       2.6026870       16.157322
       2800.0000       300000.00       2.6074840       16.193414
       3000.0000    0.0010000000       1.3560851       1.3429489
       3000.0000    0.0030000000       1.3594583       1.3711353
       3000.0000     0.010000000       1.3639616       1.4684816
       3000.0000     0.030000000       1.3696097       1.7388189
       3000.0000      0.10000000       1.3772766       2.6104663
       3000.0000      0.30000000       1.3883790       4.6084245
       3000.0000       1.0000000       1.4184225       8.5591318
       3000.0000       3.0000000       1.4892493       12.334053
       3000.0000       10.000000       1.6545143       14.717108
       3000.0000       30.000000       1.8780879       15.567348
       3000.0000       100.00000       2.1247198       15.954105
       3000.0000       300.00000       2.2993873       16.129763
       3000.0000       1000.0000       2.4281107       16.232801
       3000.0000       3000.0000       2.5014386       16.283697
       3000.0000       10000.000       2.5499711       16.314366
       3000.0000       30000.000       2.5761431       16.330389
       3000.0000       100000.00       2.5928612       16.344109
       3000.0000       300000.00       2.6016209       16.375748
       3250.0000    0.0010000000       1.3437215       1.3387511
       3250.0000    0.0030000000       1.3496157       1.3459128
       3250.0000     0.010000000       1.3545846       1.3706446
       3250.0000     0.030000000       1.3584069       1.4400486
       3250.0000      0.10000000       1.3634044       1.6759922
       3250.0000      0.30000000       1.3703405       2.3081167
       3250.0000       1.0000000       1.3827161       4.1474953
       3250.0000       3.0000000       1.4058584       7.4862323
       3250.0000       10.000000       1.4695982       11.864917
       3250.0000       30.000000       1.5991560       14.506341
       3250.0000       100.00000       1.8291638       15.717805
       3250.0000       300.00000       2.0607147       16.135179
       3250.0000       1000.0000       2.2679393       16.349449
       3250.0000       3000.0000       2.3986139       16.451731
       3250.0000       10000.000       2.4894275       16.512731
       3250.0000       30000.000       2.5395936       16.543591
       3250.0000       100000.00       2.5721597       16.565529
       3250.0000       300000.00       2.5893534       16.596235
       3500.0000    0.0010000000       1.3183515       1.3405316
       3500.0000    0.0030000000       1.3321091       1.3428476
       3500.0000     0.010000000       1.3424037       1.3507115
       3500.0000     0.030000000       1.3489550       1.3726006
       3500.0000      0.10000000       1.3543911       1.4469787
       3500.0000      0.30000000       1.3589212       1.6521757
       3500.0000       1.0000000       1.3657294       2.3220605
       3500.0000       3.0000000       1.3770039       3.9373080
       3500.0000       10.000000       1.4029300       7.5383852
       3500.0000       30.000000       1.4589189       11.634407
       3500.0000       100.00000       1.5955141       14.699334
       3500.0000       300.00000       1.8013117       15.890526
       3500.0000       1000.0000       2.0552420       16.375757
       3500.0000       3000.0000       2.2484933       16.570207
       3500.0000       10000.000       2.3961678       16.680469
       3500.0000       30000.000       2.4818428       16.735048
       3500.0000       100000.00       2.5388630       16.770475
       3500.0000       300000.00       2.5694137       16.804644
       3750.0000    0.0010000000       1.2785648       1.3441715
       3750.0000    0.0030000000       1.2957210       1.3451518
       3750.0000     0.010000000       1.3164971       1.3482494
       3750.0000     0.030000000       1.3317739       1.3565344
       3750.0000      0.10000000       1.3430160       1.3843621
       3750.0000      0.30000000       1.3499012       1.4609991
       3750.0000       1.0000000       1.3559280       1.7168443
       3750.0000       3.0000000       1.3622779       2.3923371
       3750.0000       10.000000       1.3750202       4.3316654
       3750.0000       30.000000       1.4009138       7.8008704
       3750.0000       100.00000       1.4684570       12.284344
       3750.0000       300.00000       1.6002143       14.974410
       3750.0000       1000.0000       1.8299414       16.211371
       3750.0000       3000.0000       2.0608430       16.618892
       3750.0000       10000.000       2.2681026       16.813598
       3750.0000       30000.000       2.3989264       16.903884
       3750.0000       100000.00       2.4897965       16.959474
       3750.0000       300000.00       2.5396269       17.001111
       4000.0000    0.0010000000       1.2628404       1.3503649
       4000.0000    0.0030000000       1.2678680       1.3508251
       4000.0000     0.010000000       1.2802717       1.3523331
       4000.0000     0.030000000       1.2983014       1.3562326
       4000.0000      0.10000000       1.3195613       1.3685543
       4000.0000      0.30000000       1.3347392       1.4014557
       4000.0000       1.0000000       1.3456999       1.5110252
       4000.0000       3.0000000       1.3528235       1.8068385
       4000.0000       10.000000       1.3609947       2.7388626
       4000.0000       30.000000       1.3741286       4.8456127
       4000.0000       100.00000       1.4080059       8.9950204
       4000.0000       300.00000       1.4811414       12.995193
       4000.0000       1000.0000       1.6442294       15.590396
       4000.0000       3000.0000       1.8641011       16.525221
       4000.0000       10000.000       2.1116949       16.899359
       4000.0000       30000.000       2.2901512       17.047159
       4000.0000       100000.00       2.4226601       17.131454
       4000.0000       300000.00       2.4980265       17.184909
